# tel_emiss.dat
# 3 Al mirrors
# 
#  Modification of original spectrum from tel_emiss2.dat
#
#   Wavelength        Flux density
#   (nm)          (ph/sec/nm/arcsec2/m2)
#
#  Created by Carlos Alvarez and Francisco Ramos  (Observatory Roque de los Muchachos ) 2014 May

   7000 343064.40
   7002 343393.50
   7004 343721.40
   7006 344050.50
   7008 344379.00
   7010 344707.20
   7012 345035.85
   7014 345364.65
   7016 345693.15
   7018 346021.95
   7020 346350.30
   7022 346679.10
   7024 347007.30
   7026 347335.80
   7028 347664.90
   7030 347993.40
   7032 348322.35
   7034 348650.70
   7036 348979.65
   7038 349308.60
   7040 349637.40
   7042 349965.75
   7044 350295.00
   7046 350623.20
   7048 350952.45
   7050 351281.25
   7052 351609.75
   7054 351938.55
   7056 352267.50
   7058 352596.15
   7060 352925.25
   7062 353253.75
   7064 353582.55
   7066 353911.80
   7068 354240.45
   7070 354569.55
   7072 354898.20
   7074 355227.15
   7076 355556.40
   7078 355885.20
   7080 356213.55
   7082 356542.35
   7084 356871.45
   7086 357200.85
   7088 357529.05
   7090 357858.15
   7092 358186.95
   7094 358516.05
   7096 358844.70
   7098 359173.80
   7100 359502.30
   7102 359832.00
   7104 360160.35
   7106 360489.15
   7108 360818.10
   7110 361147.50
   7112 361476.30
   7114 361804.95
   7116 362134.35
   7118 362462.70
   7120 362792.10
   7122 363120.90
   7124 363449.40
   7126 363778.20
   7128 364107.30
   7130 364435.95
   7132 364764.90
   7134 365094.30
   7136 365422.95
   7138 365751.30
   7140 366079.95
   7142 366408.90
   7144 366738.15
   7146 367066.95
   7148 367395.30
   7150 367724.70
   7152 368053.65
   7154 368382.15
   7156 368710.80
   7158 369040.05
   7160 369368.55
   7162 369697.50
   7164 370025.85
   7166 370354.65
   7168 370683.60
   7170 371012.10
   7172 371341.05
   7174 371669.40
   7176 371998.20
   7178 372327.15
   7180 372655.65
   7182 372984.45
   7184 373312.65
   7186 373641.30
   7188 373970.25
   7190 374298.75
   7192 374627.40
   7194 374955.75
   7196 375285.00
   7198 375613.05
   7200 375941.40
   7202 376270.05
   7204 376599.00
   7206 376927.50
   7208 377255.40
   7210 377584.35
   7212 377912.85
   7214 378240.90
   7216 378569.25
   7218 378897.90
   7220 379225.95
   7222 379554.45
   7224 379883.10
   7226 380211.30
   7228 380539.05
   7230 380867.70
   7232 381196.05
   7234 381523.80
   7236 381852.75
   7238 382180.20
   7240 382509.00
   7242 382837.05
   7244 383164.65
   7246 383493.45
   7248 383820.75
   7250 384085.65
   7252 384349.80
   7254 384677.85
   7256 385005.60
   7258 385333.50
   7260 385661.70
   7262 385989.45
   7264 386316.60
   7266 386644.95
   7268 386972.70
   7270 387300.75
   7272 387628.35
   7274 387956.25
   7276 388283.55
   7278 388611.15
   7280 388939.20
   7282 389266.50
   7284 389594.40
   7286 389922.30
   7288 390249.75
   7290 390577.50
   7292 390904.95
   7294 391232.40
   7296 391560.30
   7298 391887.60
   7300 392215.20
   7302 392543.10
   7304 392870.55
   7306 393198.15
   7308 393525.30
   7310 393852.75
   7312 394180.50
   7314 394507.50
   7316 394835.10
   7318 395161.95
   7320 395490.00
   7322 395817.60
   7324 396144.60
   7326 396471.75
   7328 396799.35
   7330 397126.35
   7332 397453.65
   7334 397780.35
   7336 398108.25
   7338 398434.80
   7340 398762.40
   7342 399089.55
   7344 399415.95
   7346 399743.55
   7348 400070.70
   7350 400397.25
   7352 400724.85
   7354 401051.10
   7356 401378.55
   7358 401705.40
   7360 402032.55
   7362 402358.95
   7364 402685.80
   7366 403012.95
   7368 403339.50
   7370 403666.50
   7372 403993.65
   7374 404320.20
   7376 404646.15
   7378 404973.30
   7380 405299.85
   7382 405626.70
   7384 405952.95
   7386 406279.50
   7388 406606.35
   7390 406932.45
   7392 407259.15
   7394 407584.95
   7396 407912.25
   7398 408237.90
   7400 408564.60
   7402 408890.85
   7404 409217.40
   7406 409543.35
   7408 409869.45
   7410 410196.00
   7412 410521.80
   7414 410848.05
   7416 411173.55
   7418 411500.25
   7420 411825.60
   7422 412152.00
   7424 412477.80
   7426 412803.90
   7428 413129.55
   7430 413455.20
   7432 413781.30
   7434 414106.65
   7436 414432.45
   7438 414758.40
   7440 415083.75
   7442 415409.55
   7444 415735.50
   7446 416060.85
   7448 416386.35
   7450 416711.40
   7452 417037.65
   7454 417362.25
   7456 417688.20
   7458 418013.25
   7460 418338.90
   7462 418663.80
   7464 418988.85
   7466 419314.20
   7468 419639.10
   7470 419964.30
   7472 420289.50
   7474 420614.25
   7476 420939.30
   7478 421264.50
   7480 421589.10
   7482 421914.15
   7484 422238.45
   7486 422563.80
   7488 422887.80
   7490 423212.85
   7492 423537.30
   7494 423862.20
   7496 424187.10
   7498 424511.55
   7500 424835.25
   7502 425160.15
   7504 425484.30
   7506 425809.05
   7508 426132.90
   7510 426457.05
   7512 426781.50
   7514 427105.35
   7516 427429.35
   7518 427753.65
   7520 428077.35
   7522 428401.20
   7524 428725.50
   7526 429049.05
   7528 429372.90
   7530 429696.90
   7532 430020.45
   7534 430344.15
   7536 430668.15
   7538 430991.40
   7540 431314.95
   7542 431637.90
   7544 431962.05
   7546 432285.45
   7548 432608.25
   7550 432931.20
   7552 433254.60
   7554 433578.15
   7556 433900.95
   7558 434224.20
   7560 434547.60
   7562 434870.40
   7564 435193.50
   7566 435515.70
   7568 435838.35
   7570 436161.15
   7572 436484.25
   7574 436806.75
   7576 437129.40
   7578 437451.45
   7580 437773.80
   7582 438096.30
   7584 438419.10
   7586 438741.30
   7588 439063.65
   7590 439386.30
   7592 439708.20
   7594 440029.50
   7596 440351.85
   7598 440673.60
   7600 440995.65
   7602 441318.00
   7604 441639.60
   7606 441961.50
   7608 442282.65
   7610 442605.00
   7612 442925.70
   7614 443247.60
   7616 443568.90
   7618 443890.20
   7620 444212.10
   7622 444532.95
   7624 444854.25
   7626 445175.85
   7628 445496.70
   7630 445817.70
   7632 446138.10
   7634 446459.70
   7636 446780.70
   7638 447100.80
   7640 447422.10
   7642 447742.80
   7644 448062.75
   7646 448384.05
   7648 448703.40
   7650 449024.10
   7652 449345.10
   7654 449665.35
   7656 449984.70
   7658 450305.55
   7660 450625.50
   7662 450945.75
   7664 451265.25
   7666 451585.05
   7668 451905.00
   7670 452224.35
   7672 452544.90
   7674 452863.80
   7676 453183.75
   7678 453503.10
   7680 453822.60
   7682 454142.40
   7684 454461.45
   7686 454780.80
   7688 455099.25
   7690 455419.20
   7692 455737.20
   7694 456056.55
   7696 456375.00
   7698 456694.80
   7700 457012.80
   7702 457332.30
   7704 457649.70
   7706 457968.60
   7708 458287.50
   7710 458605.80
   7712 458924.40
   7714 459242.10
   7716 459560.10
   7718 459878.40
   7720 460196.85
   7722 460514.55
   7724 460832.55
   7726 461149.80
   7728 461468.25
   7730 461784.90
   7732 462102.90
   7734 462421.05
   7736 462738.45
   7738 463055.10
   7740 463372.95
   7742 463690.05
   7744 464007.45
   7746 464323.95
   7748 464640.90
   7750 464894.55
   7752 465148.35
   7754 465464.85
   7756 465781.50
   7758 466097.40
   7760 466414.50
   7762 466730.85
   7764 467046.60
   7766 467363.40
   7768 467679.60
   7770 467995.95
   7772 468311.70
   7774 468627.45
   7776 468943.50
   7778 469259.85
   7780 469575.45
   7782 469891.20
   7784 470206.35
   7786 470522.55
   7788 470838.15
   7790 471152.85
   7792 471468.90
   7794 471784.05
   7796 472098.60
   7798 472414.20
   7800 472729.20
   7802 473044.35
   7804 473359.80
   7806 473674.35
   7808 473989.35
   7810 474304.50
   7812 474618.75
   7814 474933.30
   7816 475248.15
   7818 475562.10
   7820 475876.35
   7822 476190.90
   7824 476505.60
   7826 476819.40
   7828 477133.65
   7830 477448.20
   7832 477761.70
   7834 478075.50
   7836 478389.60
   7838 478702.95
   7840 479016.45
   7842 479330.25
   7844 479644.20
   7846 479957.40
   7848 480270.75
   7850 480584.55
   7852 480897.30
   7854 481210.50
   7856 481523.70
   7858 481836.30
   7860 482150.10
   7862 482461.95
   7864 482775.30
   7866 483088.65
   7868 483400.20
   7870 483713.10
   7872 484026.15
   7874 484338.45
   7876 484650.00
   7878 484962.75
   7880 485274.60
   7882 485586.75
   7884 485899.20
   7886 486210.75
   7888 486522.45
   7890 486834.45
   7892 487146.75
   7894 487458.15
   7896 487769.85
   7898 488080.65
   7900 488392.80
   7902 488704.05
   7904 489014.55
   7906 489326.25
   7908 489637.20
   7910 489948.30
   7912 490258.65
   7914 490570.20
   7916 490881.00
   7918 491191.80
   7920 491502.00
   7922 491812.50
   7924 492123.00
   7926 492432.75
   7928 492743.70
   7930 493052.85
   7932 493363.20
   7934 493673.85
   7936 493983.75
   7938 494293.80
   7940 494602.80
   7942 494912.25
   7944 495222.00
   7946 495531.75
   7948 495841.80
   7950 496151.10
   7952 496460.40
   7954 496768.95
   7956 497077.80
   7958 497386.80
   7960 497696.10
   7962 498004.50
   7964 498314.10
   7966 498621.75
   7968 498930.90
   7970 499239.15
   7972 499547.40
   7974 499856.10
   7976 500163.75
   7978 500472.75
   7980 500779.80
   7982 501088.35
   7984 501395.85
   7986 501703.65
   7988 502011.45
   7990 502318.65
   7992 502626.90
   7994 502934.55
   7996 503241.15
   7998 503549.10
   8000 503856.15
   8002 504162.30
   8004 504469.95
   8006 504776.55
   8008 505083.30
   8010 505390.35
   8012 505696.50
   8014 506002.95
   8016 506309.55
   8018 506616.30
   8020 506922.30
   8022 507228.30
   8024 507534.75
   8026 507840.15
   8028 508145.85
   8030 508451.70
   8032 508757.85
   8034 509062.80
   8036 509369.55
   8038 509674.05
   8040 509979.90
   8042 510284.85
   8044 510589.95
   8046 510895.35
   8048 511199.70
   8050 511504.35
   8052 511809.30
   8054 512114.40
   8056 512418.45
   8058 512722.95
   8060 513027.45
   8062 513332.25
   8064 513636.15
   8066 513940.35
   8068 514244.70
   8070 514548.00
   8072 514851.60
   8074 515155.35
   8076 515459.40
   8078 515762.40
   8080 516065.85
   8082 516369.30
   8084 516671.85
   8086 516975.60
   8088 517278.75
   8090 517581.90
   8092 517884.15
   8094 518186.70
   8096 518489.40
   8098 518792.25
   8100 519094.05
   8102 519396.30
   8104 519698.70
   8106 520001.25
   8108 520302.90
   8110 520604.85
   8112 520906.80
   8114 521209.05
   8116 521510.25
   8118 521811.90
   8120 522113.55
   8122 522414.30
   8124 522715.35
   8126 523016.40
   8128 523317.90
   8130 523618.20
   8132 523920.00
   8134 524219.70
   8136 524520.75
   8138 524820.90
   8140 525122.25
   8142 525421.50
   8144 525722.25
   8146 526021.95
   8148 526321.95
   8150 526621.95
   8152 526922.10
   8154 527221.65
   8156 527521.20
   8158 527821.05
   8160 528119.85
   8162 528418.80
   8164 528718.05
   8166 529017.30
   8168 529315.80
   8170 529614.30
   8172 529913.25
   8174 530212.20
   8176 530510.25
   8178 530808.30
   8180 531106.80
   8182 531405.45
   8184 531703.20
   8186 532000.95
   8188 532299.00
   8190 532597.35
   8192 532894.50
   8194 533191.95
   8196 533489.70
   8198 533786.25
   8200 534084.30
   8202 534381.45
   8204 534678.60
   8206 534974.85
   8208 535271.25
   8210 535567.95
   8212 535864.80
   8214 536160.60
   8216 536457.90
   8218 536754.00
   8220 537049.20
   8222 537345.90
   8224 537641.55
   8226 537937.35
   8228 538233.30
   8230 538528.35
   8232 538824.60
   8234 539118.75
   8236 539414.40
   8238 539710.20
   8240 540004.95
   8242 540299.85
   8244 540593.70
   8246 540889.05
   8248 541183.35
   8250 541417.20
   8252 541651.05
   8254 541944.75
   8256 542238.60
   8258 542532.45
   8260 542826.75
   8262 543119.85
   8264 543413.25
   8266 543706.80
   8268 544000.65
   8270 544294.50
   8272 544587.60
   8274 544880.70
   8276 545172.90
   8278 545466.30
   8280 545759.10
   8282 546051.90
   8284 546344.55
   8286 546636.60
   8288 546928.65
   8290 547221.00
   8292 547513.50
   8294 547805.10
   8296 548096.70
   8298 548388.60
   8300 548680.65
   8302 548971.80
   8304 549262.95
   8306 549554.55
   8308 549846.15
   8310 550137.75
   8312 550428.75
   8314 550719.75
   8316 551010.90
   8318 551301.00
   8320 551591.40
   8322 551881.95
   8324 552172.65
   8326 552463.50
   8328 552753.45
   8330 553043.55
   8332 553333.80
   8334 553623.15
   8336 553913.70
   8338 554203.35
   8340 554491.80
   8342 554781.90
   8344 555070.80
   8346 555360.15
   8348 555649.50
   8350 555938.85
   8352 556227.30
   8354 556516.05
   8356 556804.80
   8358 557092.65
   8360 557381.85
   8362 557670.00
   8364 557958.30
   8366 558246.90
   8368 558534.45
   8370 558822.15
   8372 559110.00
   8374 559398.00
   8376 559684.95
   8378 559972.20
   8380 560259.60
   8382 560547.15
   8384 560834.85
   8386 561121.65
   8388 561408.45
   8390 561695.40
   8392 561981.45
   8394 562268.85
   8396 562555.20
   8398 562841.85
   8400 563127.30
   8402 563414.10
   8404 563700.00
   8406 563986.05
   8408 564270.90
   8410 564557.40
   8412 564842.70
   8414 565128.30
   8416 565413.75
   8418 565698.30
   8420 565983.15
   8422 566268.15
   8424 566553.30
   8426 566838.75
   8428 567122.85
   8430 567407.10
   8432 567691.80
   8434 567975.45
   8436 568260.45
   8438 568544.25
   8440 568828.35
   8442 569111.10
   8444 569395.65
   8446 569678.85
   8448 569962.35
   8450 570246.15
   8452 570528.75
   8454 570812.70
   8456 571095.75
   8458 571377.60
   8460 571660.80
   8462 571942.95
   8464 572225.40
   8466 572508.00
   8468 572790.60
   8470 573072.30
   8472 573355.35
   8474 573637.35
   8476 573918.30
   8478 574200.60
   8480 574481.85
   8482 574763.25
   8484 575044.80
   8486 575325.30
   8488 575607.30
   8490 575887.95
   8492 576169.05
   8494 576448.80
   8496 576730.20
   8498 577010.40
   8500 577290.75
   8502 577571.40
   8504 577850.85
   8506 578131.80
   8508 578411.55
   8510 578690.10
   8512 578970.30
   8514 579250.65
   8516 579529.95
   8518 579809.25
   8520 580087.35
   8522 580367.10
   8524 580645.80
   8526 580924.65
   8528 581203.50
   8530 581482.50
   8532 581760.45
   8534 582038.55
   8536 582316.80
   8538 582595.35
   8540 582872.70
   8542 583150.20
   8544 583427.85
   8546 583705.80
   8548 583983.75
   8550 584260.65
   8552 584537.55
   8554 584814.90
   8556 585092.25
   8558 585368.55
   8560 585644.70
   8562 585921.30
   8564 586198.20
   8566 586474.95
   8568 586750.80
   8570 587026.80
   8572 587302.80
   8574 587578.80
   8576 587854.05
   8578 588129.30
   8580 588404.70
   8582 588680.40
   8584 588956.10
   8586 589230.60
   8588 589505.40
   8590 589780.35
   8592 590055.45
   8594 590329.50
   8596 590603.40
   8598 590877.75
   8600 591153.45
   8602 591426.60
   8604 591700.20
   8606 591975.15
   8608 592247.55
   8610 592521.45
   8612 592795.35
   8614 593068.35
   8616 593341.35
   8618 593614.65
   8620 593886.75
   8622 594160.20
   8624 594432.75
   8626 594705.15
   8628 594977.85
   8630 595249.35
   8632 595522.50
   8634 595794.15
   8636 596066.10
   8638 596337.15
   8640 596609.25
   8642 596880.45
   8644 597151.80
   8646 597423.30
   8648 597694.80
   8650 597965.25
   8652 598235.70
   8654 598506.45
   8656 598777.35
   8658 599047.20
   8660 599318.40
   8662 599588.55
   8664 599858.55
   8666 600127.35
   8668 600397.95
   8670 600667.35
   8672 600936.75
   8674 601206.45
   8676 601474.80
   8678 601744.65
   8680 602013.30
   8682 602282.25
   8684 602551.20
   8686 602819.25
   8688 603088.50
   8690 603356.70
   8692 603624.75
   8694 603893.25
   8696 604160.55
   8698 604428.00
   8700 604695.45
   8702 604963.20
   8704 605230.95
   8706 605497.65
   8708 605765.85
   8710 606032.85
   8712 606298.50
   8714 606565.65
   8716 606831.75
   8718 607099.20
   8720 607364.25
   8722 607630.65
   8724 607897.35
   8726 608162.70
   8728 608428.35
   8730 608694.15
   8732 608959.80
   8734 609224.55
   8736 609490.65
   8738 609755.55
   8740 610020.75
   8742 610284.60
   8744 610549.95
   8746 610814.10
   8748 611078.40
   8750 611285.40
   8752 611492.25
   8754 611755.65
   8756 612019.20
   8758 612284.10
   8760 612546.45
   8762 612810.45
   8764 613073.10
   8766 613337.40
   8768 613600.50
   8770 613862.10
   8772 614125.50
   8774 614387.70
   8776 614650.05
   8778 614912.40
   8780 615174.90
   8782 615437.70
   8784 615699.15
   8786 615960.75
   8788 616222.65
   8790 616484.55
   8792 616746.75
   8794 617007.75
   8796 617268.75
   8798 617529.75
   8800 617791.20
   8802 618051.30
   8804 618312.90
   8806 618573.30
   8808 618834.00
   8810 619093.20
   8812 619354.05
   8814 619613.70
   8816 619873.50
   8818 620133.45
   8820 620393.55
   8822 620652.45
   8824 620912.70
   8826 621171.75
   8828 621431.25
   8830 621690.60
   8832 621948.75
   8834 622207.20
   8836 622466.85
   8838 622725.60
   8840 622983.00
   8842 623242.05
   8844 623499.60
   8846 623757.45
   8848 624015.45
   8850 624273.45
   8852 624530.55
   8854 624788.85
   8856 625046.10
   8858 625303.35
   8860 625559.55
   8862 625816.95
   8864 626073.30
   8866 626329.80
   8868 626586.45
   8870 626843.40
   8872 627100.35
   8874 627355.95
   8876 627611.70
   8878 627867.75
   8880 628123.80
   8882 628378.65
   8884 628635.00
   8886 628890.15
   8888 629145.45
   8890 629400.75
   8892 629655.00
   8894 629910.60
   8896 630165.15
   8898 630419.70
   8900 630674.40
   8902 630927.75
   8904 631182.75
   8906 631436.40
   8908 631690.50
   8910 631944.45
   8912 632197.20
   8914 632451.45
   8916 632704.50
   8918 632957.55
   8920 633211.05
   8922 633464.40
   8924 633716.55
   8926 633968.85
   8928 634222.50
   8930 634473.75
   8932 634726.50
   8934 634978.05
   8936 635230.95
   8938 635482.65
   8940 635734.65
   8942 635986.35
   8944 636237.15
   8946 636489.45
   8948 636740.55
   8950 636991.65
   8952 637241.55
   8954 637492.65
   8956 637742.70
   8958 637994.40
   8960 638243.40
   8962 638493.90
   8964 638744.55
   8966 638994.00
   8968 639244.80
   8970 639494.40
   8972 639744.15
   8974 639992.70
   8976 640242.60
   8978 640491.45
   8980 640740.30
   8982 640989.30
   8984 641238.30
   8986 641486.10
   8988 641735.70
   8990 641983.65
   8992 642231.90
   8994 642480.15
   8996 642727.20
   8998 642975.90
   9000 643223.25
   9002 643470.60
   9004 643718.25
   9006 643964.55
   9008 644212.20
   9010 644458.80
   9012 644705.55
   9014 644952.30
   9016 645199.35
   9018 645444.90
   9020 645691.95
   9022 645937.80
   9024 646183.95
   9026 646430.10
   9028 646674.90
   9030 646921.35
   9032 647166.30
   9034 647411.40
   9036 647656.80
   9038 647902.20
   9040 648146.55
   9042 648390.90
   9044 648636.60
   9046 648879.75
   9048 649124.25
   9050 649369.05
   9052 649612.50
   9054 649857.45
   9056 650101.20
   9058 650343.75
   9060 650587.50
   9062 650831.70
   9064 651074.40
   9066 651317.40
   9068 651560.40
   9070 651803.55
   9072 652045.20
   9074 652287.00
   9076 652530.60
   9078 652772.85
   9080 653013.90
   9082 653256.15
   9084 653498.70
   9086 653739.75
   9088 653981.25
   9090 654222.60
   9092 654464.25
   9094 654704.55
   9096 654946.35
   9098 655186.95
   9100 655427.25
   9102 655668.30
   9104 655907.55
   9106 656148.45
   9108 656388.15
   9110 656628.00
   9112 656867.70
   9114 657107.70
   9116 657346.35
   9118 657586.65
   9120 657825.45
   9122 658064.55
   9124 658303.80
   9126 658543.05
   9128 658780.80
   9130 659018.85
   9132 659257.05
   9134 659495.40
   9136 659733.60
   9138 659972.25
   9140 660209.25
   9142 660446.55
   9144 660684.00
   9146 660921.30
   9148 661159.20
   9150 661396.80
   9152 661633.20
   9154 661869.60
   9156 662106.30
   9158 662343.00
   9160 662579.85
   9162 662815.35
   9164 663050.85
   9166 663288.00
   9168 663522.45
   9170 663758.40
   9172 663994.50
   9174 664229.10
   9176 664464.15
   9178 664698.75
   9180 664933.80
   9182 665169.00
   9184 665404.20
   9186 665638.20
   9188 665872.20
   9190 666106.35
   9192 666340.35
   9194 666574.80
   9196 666807.90
   9198 667041.00
   9200 667274.10
   9202 667507.50
   9204 667740.90
   9206 667974.45
   9208 668206.50
   9210 668440.35
   9212 668672.70
   9214 668905.20
   9216 669136.50
   9218 669369.00
   9220 669600.30
   9222 669833.40
   9224 670063.50
   9226 670295.25
   9228 670527.15
   9230 670758.90
   9232 670989.30
   9234 671219.85
   9236 671450.70
   9238 671681.55
   9240 671912.55
   9242 672142.05
   9244 672373.05
   9246 672602.85
   9248 672832.80
   9250 673009.35
   9252 673184.55
   9254 673414.65
   9256 673643.55
   9258 673872.30
   9260 674101.35
   9262 674330.55
   9264 674558.25
   9266 674787.60
   9268 675015.45
   9270 675243.45
   9272 675471.90
   9274 675700.20
   9276 675928.65
   9278 676155.60
   9280 676383.00
   9282 676610.25
   9284 676837.50
   9286 677065.05
   9288 677292.60
   9290 677518.95
   9292 677745.30
   9294 677971.80
   9296 678198.45
   9298 678424.95
   9300 678651.75
   9302 678877.20
   9304 679102.80
   9306 679328.55
   9308 679554.15
   9310 679779.90
   9312 680005.95
   9314 680230.65
   9316 680455.20
   9318 680680.20
   9320 680905.20
   9322 681130.20
   9324 681355.20
   9326 681578.85
   9328 681802.80
   9330 682026.75
   9332 682250.85
   9334 682475.10
   9336 682697.70
   9338 682922.10
   9340 683145.30
   9342 683368.20
   9344 683591.55
   9346 683815.05
   9348 684037.05
   9350 684260.40
   9352 684482.40
   9354 684704.85
   9356 684927.15
   9358 685149.60
   9360 685370.70
   9362 685593.30
   9364 685814.70
   9366 686035.95
   9368 686257.50
   9370 686479.05
   9372 686699.25
   9374 686921.10
   9376 687141.45
   9378 687361.95
   9380 687582.45
   9382 687803.25
   9384 688024.20
   9386 688243.50
   9388 688462.95
   9390 688684.05
   9392 688903.80
   9394 689122.05
   9396 689342.10
   9398 689562.15
   9400 689780.70
   9402 689999.40
   9404 690218.25
   9406 690437.25
   9408 690656.25
   9410 690873.90
   9412 691091.55
   9414 691311.00
   9416 691528.80
   9418 691746.75
   9420 691963.50
   9422 692181.60
   9424 692398.35
   9426 692616.90
   9428 692833.80
   9430 693049.50
   9432 693266.70
   9434 693483.90
   9436 693699.90
   9438 693917.40
   9440 694133.55
   9442 694349.55
   9444 694564.50
   9446 694780.80
   9448 694997.25
   9450 695212.35
   9452 695427.60
   9454 695642.55
   9456 695857.95
   9458 696073.50
   9460 696287.55
   9462 696501.60
   9464 696717.45
   9466 696931.80
   9468 697146.00
   9470 697359.00
   9472 697573.65
   9474 697786.80
   9476 698000.25
   9478 698215.20
   9480 698428.65
   9482 698640.45
   9484 698854.20
   9486 699067.80
   9488 699280.20
   9490 699492.75
   9492 699705.15
   9494 699917.70
   9496 700130.40
   9498 700341.75
   9500 700553.10
   9502 700766.10
   9504 700977.60
   9506 701189.25
   9508 701399.40
   9510 701611.20
   9512 701821.65
   9514 702033.60
   9516 702244.20
   9518 702454.80
   9520 702665.55
   9522 702874.80
   9524 703085.70
   9526 703295.25
   9528 703504.80
   9530 703714.50
   9532 703924.35
   9534 704134.05
   9536 704344.05
   9538 704552.70
   9540 704761.35
   9542 704969.85
   9544 705178.80
   9546 705387.60
   9548 705596.55
   9550 705803.85
   9552 706012.95
   9554 706220.85
   9556 706428.60
   9558 706636.50
   9560 706844.40
   9562 707050.95
   9564 707259.00
   9566 707465.70
   9568 707672.55
   9570 707879.25
   9572 708086.25
   9574 708293.25
   9576 708498.90
   9578 708706.05
   9580 708911.85
   9582 709117.80
   9584 709323.60
   9586 709528.05
   9588 709734.15
   9590 709940.25
   9592 710145.00
   9594 710349.90
   9596 710554.80
   9598 710759.70
   9600 710964.75
   9602 711168.30
   9604 711373.50
   9606 711577.35
   9608 711781.35
   9610 711985.20
   9612 712189.20
   9614 712391.70
   9616 712596.00
   9618 712798.65
   9620 713001.45
   9622 713204.55
   9624 713407.50
   9626 713610.45
   9628 713813.70
   9630 714015.30
   9632 714218.70
   9634 714420.60
   9636 714622.50
   9638 714824.55
   9640 715024.95
   9642 715227.15
   9644 715427.85
   9646 715628.85
   9648 715831.20
   9650 716032.20
   9652 716233.20
   9654 716432.55
   9656 716633.85
   9658 716833.65
   9660 717033.45
   9662 717233.40
   9664 717433.20
   9666 717633.15
   9668 717833.40
   9670 718032.00
   9672 718232.40
   9674 718431.30
   9676 718630.20
   9678 718828.95
   9680 719028.00
   9682 719225.70
   9684 719424.90
   9686 719622.60
   9688 719820.45
   9690 720018.30
   9692 720216.15
   9694 720414.30
   9696 720610.80
   9698 720808.95
   9700 721005.75
   9702 721202.55
   9704 721399.35
   9706 721596.30
   9708 721793.25
   9710 721990.35
   9712 722186.10
   9714 722381.70
   9716 722577.45
   9718 722774.85
   9720 722969.10
   9722 723165.15
   9724 723361.35
   9726 723555.90
   9728 723750.60
   9730 723945.30
   9732 724140.00
   9734 724334.70
   9736 724529.70
   9738 724724.85
   9740 724918.35
   9742 725112.15
   9744 725305.50
   9746 725499.30
   9748 725693.25
   9750 725837.70
   9752 725980.35
   9754 726174.45
   9756 726367.05
   9758 726559.50
   9760 726752.10
   9762 726945.00
   9764 727137.90
   9766 727329.30
   9768 727522.35
   9770 727713.75
   9772 727905.30
   9774 728097.00
   9776 728288.85
   9778 728480.70
   9780 728672.70
   9782 728863.20
   9784 729053.70
   9786 729244.20
   9788 729434.85
   9790 729625.65
   9792 729816.45
   9794 730005.90
   9796 730196.85
   9798 730386.30
   9800 730577.55
   9802 730767.30
   9804 730955.40
   9806 731145.30
   9808 731335.20
   9810 731523.45
   9812 731713.50
   9814 731902.05
   9816 732090.75
   9818 732279.60
   9820 732468.30
   9822 732655.65
   9824 732844.35
   9826 733032.00
   9828 733219.50
   9830 733407.15
   9832 733594.80
   9834 733782.60
   9836 733970.40
   9838 734156.70
   9840 734343.15
   9842 734531.10
   9844 734717.70
   9846 734904.45
   9848 735091.20
   9850 735276.30
   9852 735463.20
   9854 735648.45
   9856 735835.65
   9858 736021.05
   9860 736206.75
   9862 736392.15
   9864 736576.50
   9866 736762.20
   9868 736946.55
   9870 737132.70
   9872 737317.05
   9874 737501.55
   9876 737686.05
   9878 737870.70
   9880 738053.85
   9882 738238.80
   9884 738422.10
   9886 738605.40
   9888 738788.85
   9890 738972.45
   9892 739155.90
   9894 739339.65
   9896 739521.75
   9898 739705.65
   9900 739888.05
   9902 740070.30
   9904 740252.70
   9906 740435.25
   9908 740617.80
   9910 740798.85
   9912 740981.70
   9914 741163.05
   9916 741344.10
   9918 741525.45
   9920 741706.95
   9922 741888.45
   9924 742070.10
   9926 742250.10
   9928 742431.75
   9930 742611.90
   9932 742792.20
   9934 742972.65
   9936 743153.10
   9938 743331.90
   9940 743512.50
   9942 743692.95
   9944 743872.05
   9946 744051.15
   9948 744230.40
   9950 744409.80
   9952 744589.05
   9954 744768.45
   9956 744946.20
   9958 745124.25
   9960 745303.95
   9962 745482.15
   9964 745660.35
   9966 745838.55
   9968 746015.10
   9970 746193.60
   9972 746370.30
   9974 746548.95
   9976 746725.95
   9978 746903.10
   9980 747080.10
   9982 747257.25
   9984 747432.75
   9986 747610.20
   9988 747786.00
   9990 747963.45
   9992 748139.40
   9994 748315.20
   9996 748491.30
   9998 748665.75
  10000 748842.00
  10002 749016.60
  10004 749193.15
  10006 749367.90
  10008 749542.50
  10010 749717.55
  10012 749892.45
  10014 750067.50
  10016 750241.05
  10018 750416.25
  10020 750589.65
  10022 750763.35
  10024 750937.20
  10026 751111.05
  10028 751284.90
  10030 751457.25
  10032 751631.25
  10034 751805.25
  10036 751977.75
  10038 752150.40
  10040 752323.05
  10042 752495.70
  10044 752667.00
  10046 752839.80
  10048 753012.60
  10050 753183.90
  10052 753355.50
  10054 753526.80
  10056 753698.55
  10058 753870.15
  10060 754041.75
  10062 754213.35
  10064 754383.75
  10066 754553.85
  10068 754724.25
  10070 754896.15
  10072 755064.90
  10074 755235.45
  10076 755406.15
  10078 755576.70
  10080 755745.60
  10082 755916.30
  10084 756085.65
  10086 756254.70
  10088 756424.05
  10090 756593.40
  10092 756761.40
  10094 756930.75
  10096 757098.60
  10098 757268.25
  10100 757436.10
  10102 757604.40
  10104 757772.55
  10106 757940.70
  10108 758107.50
  10110 758275.80
  10112 758442.45
  10114 758610.90
  10116 758777.70
  10118 758944.80
  10120 759111.90
  10122 759277.20
  10124 759444.45
  10126 759611.55
  10128 759777.15
  10130 759942.75
  10132 760110.30
  10134 760276.05
  10136 760441.80
  10138 760606.20
  10140 760772.10
  10142 760938.15
  10144 761102.70
  10146 761267.10
  10148 761431.80
  10150 761596.35
  10152 761760.90
  10154 761925.60
  10156 762090.45
  10158 762253.65
  10160 762418.80
  10162 762582.00
  10164 762745.50
  10166 762910.50
  10168 763072.35
  10170 763235.85
  10172 763399.50
  10174 763561.65
  10176 763725.30
  10178 763887.45
  10180 764049.60
  10182 764211.75
  10184 764374.20
  10186 764536.65
  10188 764699.10
  10190 764859.90
  10192 765022.35
  10194 765183.30
  10196 765345.90
  10198 765507.00
  10200 765666.60
  10202 765827.85
  10204 765988.80
  10206 766150.20
  10208 766309.80
  10210 766469.70
  10212 766631.10
  10214 766791.00
  10216 766951.05
  10218 767110.95
  10220 767271.00
  10222 767429.40
  10224 767589.60
  10226 767748.00
  10228 767906.70
  10230 768066.90
  10232 768225.60
  10234 768382.65
  10236 768541.50
  10238 768700.35
  10240 768857.70
  10242 769016.70
  10244 769173.90
  10246 769331.40
  10248 769488.75
  10250 769601.55
  10252 769714.50
  10254 769872.15
  10256 770028.00
  10258 770185.65
  10260 770341.95
  10262 770497.95
  10264 770656.05
  10266 770812.20
  10268 770967.00
  10270 771123.30
  10272 771279.90
  10274 771434.85
  10276 771591.45
  10278 771746.55
  10280 771901.65
  10282 772056.75
  10284 772211.70
  10286 772367.10
  10288 772522.50
  10290 772676.10
  10292 772831.65
  10294 772985.55
  10296 773139.30
  10298 773293.20
  10300 773447.10
  10302 773601.30
  10304 773755.50
  10306 773907.90
  10308 774062.25
  10310 774214.80
  10312 774367.50
  10314 774522.00
  10316 774673.20
  10318 774825.90
  10320 774978.90
  10322 775131.90
  10324 775284.90
  10326 775436.25
  10328 775587.75
  10330 775739.25
  10332 775891.05
  10334 776042.70
  10336 776194.35
  10338 776346.00
  10340 776497.95
  10342 776648.25
  10344 776798.55
  10346 776950.50
  10348 777100.95
  10350 777251.25
  10352 777401.85
  10354 777552.45
  10356 777701.40
  10358 777852.00
  10360 778001.10
  10362 778151.70
  10364 778300.95
  10366 778450.20
  10368 778599.45
  10370 778749.00
  10372 778898.25
  10374 779046.00
  10376 779195.55
  10378 779343.30
  10380 779493.00
  10382 779641.05
  10384 779789.10
  10386 779937.15
  10388 780085.35
  10390 780231.75
  10392 780380.10
  10394 780528.45
  10396 780675.15
  10398 780821.85
  10400 780968.85
  10402 781117.20
  10404 781262.40
  10406 781409.40
  10408 781556.55
  10410 781701.75
  10412 781849.05
  10414 781994.55
  10416 782141.70
  10418 782287.20
  10420 782433.00
  10422 782578.80
  10424 782722.80
  10426 782868.60
  10428 783014.25
  10430 783158.70
  10432 783303.00
  10434 783449.10
  10436 783593.40
  10438 783737.85
  10440 783882.45
  10442 784026.90
  10444 784169.70
  10446 784314.45
  10448 784457.55
  10450 784600.50
  10452 784745.40
  10454 784888.50
  10456 785031.75
  10458 785175.00
  10460 785318.55
  10462 785460.00
  10464 785603.70
  10466 785745.45
  10468 785887.05
  10470 786030.75
  10472 786172.65
  10474 786314.70
  10476 786456.75
  10478 786597.15
  10480 786739.35
  10482 786881.55
  10484 787022.10
  10486 787162.65
  10488 787305.15
  10490 787445.85
  10492 787586.70
  10494 787725.60
  10496 787866.60
  10498 788007.45
  10500 788148.30
  10502 788287.80
  10504 788427.15
  10506 788566.65
  10508 788707.65
  10510 788847.30
  10512 788985.15
  10514 789124.80
  10516 789264.30
  10518 789402.30
  10520 789541.95
  10522 789680.40
  10524 789818.40
  10526 789958.35
  10528 790096.65
  10530 790233.30
  10532 790371.60
  10534 790509.90
  10536 790646.70
  10538 790785.15
  10540 790921.95
  10542 791060.70
  10544 791197.65
  10546 791334.60
  10548 791471.70
  10550 791606.85
  10552 791744.10
  10554 791881.35
  10556 792016.80
  10558 792154.20
  10560 792289.65
  10562 792425.40
  10564 792561.15
  10566 792696.75
  10568 792832.65
  10570 792968.55
  10572 793102.65
  10574 793238.55
  10576 793372.80
  10578 793507.20
  10580 793643.10
  10582 793777.65
  10584 793912.20
  10586 794044.80
  10588 794179.35
  10590 794314.20
  10592 794447.10
  10594 794581.80
  10596 794714.85
  10598 794847.90
  10600 794982.60
  10602 795115.80
  10604 795249.15
  10606 795380.70
  10608 795513.90
  10610 795645.60
  10612 795778.80
  10614 795912.30
  10616 796044.15
  10618 796176.15
  10620 796307.85
  10622 796439.70
  10624 796571.85
  10626 796701.90
  10628 796833.90
  10630 796966.20
  10632 797096.55
  10634 797226.90
  10636 797359.20
  10638 797489.85
  10640 797620.20
  10642 797750.85
  10644 797879.85
  10646 798010.65
  10648 798141.30
  10650 798270.45
  10652 798399.30
  10654 798530.40
  10656 798659.55
  10658 798788.85
  10660 798918.15
  10662 799047.60
  10664 799175.25
  10666 799304.40
  10668 799432.20
  10670 799561.80
  10672 799689.60
  10674 799817.70
  10676 799945.65
  10678 800075.10
  10680 800201.40
  10682 800329.35
  10684 800457.45
  10686 800583.90
  10688 800712.15
  10690 800838.60
  10692 800966.85
  10694 801093.45
  10696 801219.90
  10698 801346.65
  10700 801473.40
  10702 801600.15
  10704 801725.10
  10706 801851.85
  10708 801977.10
  10710 802102.20
  10712 802229.10
  10714 802354.50
  10716 802479.75
  10718 802605.00
  10720 802730.40
  10722 802854.15
  10724 802979.55
  10726 803105.10
  10728 803228.85
  10730 803352.75
  10732 803478.30
  10734 803602.35
  10736 803726.25
  10738 803850.15
  10740 803972.55
  10742 804096.75
  10744 804220.65
  10746 804342.90
  10748 804467.40
  10750 804549.15
  10752 804630.90
  10754 804753.45
  10756 804876.15
  10758 804998.70
  10760 805121.40
  10762 805244.25
  10764 805365.30
  10766 805488.15
  10768 805609.20
  10770 805730.25
  10772 805853.40
  10774 805974.60
  10776 806095.95
  10778 806217.30
  10780 806337.15
  10782 806458.65
  10784 806580.15
  10786 806699.85
  10788 806821.65
  10790 806941.35
  10792 807061.50
  10794 807181.50
  10796 807301.65
  10798 807421.65
  10800 807541.80
  10802 807660.30
  10804 807780.60
  10806 807899.10
  10808 808019.40
  10810 808137.90
  10812 808256.55
  10814 808375.35
  10816 808494.15
  10818 808612.95
  10820 808731.90
  10822 808850.85
  10824 808967.85
  10826 809086.80
  10828 809204.10
  10830 809323.35
  10832 809440.65
  10834 809558.10
  10836 809675.40
  10838 809792.85
  10840 809908.80
  10842 810026.40
  10844 810144.00
  10846 810260.10
  10848 810376.05
  10850 810493.65
  10852 810609.90
  10854 810725.85
  10856 810841.95
  10858 810958.20
  10860 811074.60
  10862 811190.70
  10864 811305.30
  10866 811421.70
  10868 811536.30
  10870 811651.05
  10872 811767.60
  10874 811882.35
  10876 811997.25
  10878 812112.15
  10880 812226.90
  10882 812340.15
  10884 812455.20
  10886 812570.25
  10888 812683.65
  10890 812796.75
  10892 812912.10
  10894 813025.50
  10896 813138.90
  10898 813252.60
  10900 813366.15
  10902 813479.70
  10904 813591.60
  10906 813705.30
  10908 813817.35
  10910 813931.20
  10912 814043.25
  10914 814155.30
  10916 814267.35
  10918 814379.70
  10920 814491.90
  10922 814604.40
  10924 814716.60
  10926 814827.15
  10928 814939.35
  10930 815050.20
  10932 815160.90
  10934 815273.55
  10936 815384.25
  10938 815495.25
  10940 815606.10
  10942 815716.80
  10944 815826.15
  10946 815937.15
  10948 816046.35
  10950 816157.65
  10952 816266.85
  10954 816378.00
  10956 816487.35
  10958 816596.85
  10960 816706.65
  10962 816816.15
  10964 816923.85
  10966 817033.65
  10968 817143.15
  10970 817251.15
  10972 817360.95
  10974 817469.10
  10976 817577.10
  10978 817685.10
  10980 817795.20
  10982 817903.20
  10984 818009.55
  10986 818118.00
  10988 818226.30
  10990 818332.95
  10992 818441.25
  10994 818547.90
  10996 818654.55
  10998 818763.15
  11000 818869.80
  11002 818976.60
  11004 819083.55
  11006 819188.70
  11008 819295.50
  11010 819402.45
  11012 819507.60
  11014 819614.85
  11016 819720.15
  11018 819827.25
  11020 819932.55
  11022 820038.00
  11024 820143.45
  11026 820248.90
  11028 820352.85
  11030 820458.30
  11032 820564.05
  11034 820667.70
  11036 820773.30
  11038 820877.40
  11040 820981.35
  11042 821085.30
  11044 821189.40
  11046 821293.65
  11048 821397.60
  11050 821501.85
  11052 821606.10
  11054 821708.40
  11056 821812.80
  11058 821915.25
  11060 822019.65
  11062 822122.25
  11064 822224.85
  11066 822327.60
  11068 822430.35
  11070 822533.10
  11072 822634.20
  11074 822736.80
  11076 822839.70
  11078 822940.80
  11080 823043.85
  11082 823144.80
  11084 823246.20
  11086 823347.15
  11088 823448.70
  11090 823550.10
  11092 823651.35
  11094 823752.90
  11096 823854.30
  11098 823953.90
  11100 824055.30
  11102 824155.05
  11104 824254.95
  11106 824354.70
  11108 824456.40
  11110 824556.45
  11112 824656.20
  11114 824756.10
  11116 824854.35
  11118 824954.40
  11120 825054.60
  11122 825152.85
  11124 825251.25
  11126 825351.30
  11128 825449.85
  11130 825548.25
  11132 825646.80
  11134 825745.35
  11136 825843.90
  11138 825942.60
  11140 826041.00
  11142 826137.90
  11144 826234.80
  11146 826333.65
  11148 826430.55
  11150 826527.60
  11152 826626.30
  11154 826723.35
  11156 826820.70
  11158 826915.95
  11160 827013.15
  11162 827110.35
  11164 827207.70
  11166 827302.80
  11168 827400.30
  11170 827495.85
  11172 827591.40
  11174 827687.10
  11176 827784.60
  11178 827880.15
  11180 827974.05
  11182 828069.90
  11184 828165.60
  11186 828261.45
  11188 828355.35
  11190 828449.70
  11192 828545.40
  11194 828639.60
  11196 828733.65
  11198 828829.80
  11200 828924.15
  11202 829016.55
  11204 829110.75
  11206 829205.10
  11208 829299.45
  11210 829392.00
  11212 829486.65
  11214 829579.20
  11216 829673.70
  11218 829766.40
  11220 829859.10
  11222 829951.95
  11224 830044.80
  11226 830137.65
  11228 830230.65
  11230 830321.85
  11232 830414.55
  11234 830507.55
  11236 830598.75
  11238 830689.95
  11240 830783.10
  11242 830874.45
  11244 830965.80
  11246 831057.00
  11248 831148.50
  11250 831203.25
  11252 831256.05
  11254 831347.40
  11256 831439.05
  11258 831528.60
  11260 831620.10
  11262 831710.10
  11264 831799.95
  11266 831889.80
  11268 831979.80
  11270 832071.60
  11272 832159.65
  11274 832249.65
  11276 832339.80
  11278 832428.15
  11280 832518.30
  11282 832606.80
  11284 832696.80
  11286 832785.45
  11288 832873.80
  11290 832964.25
  11292 833052.90
  11294 833139.60
  11296 833228.25
  11298 833316.75
  11300 833405.70
  11302 833492.70
  11304 833581.35
  11306 833668.35
  11308 833757.30
  11310 833844.30
  11312 833931.30
  11314 834018.60
  11316 834105.75
  11318 834192.90
  11320 834280.35
  11322 834367.65
  11324 834454.80
  11326 834540.45
  11328 834627.90
  11330 834713.70
  11332 834799.35
  11334 834886.80
  11336 834972.30
  11338 835058.25
  11340 835144.05
  11342 835229.70
  11344 835315.65
  11346 835399.95
  11348 835485.90
  11350 835571.70
  11352 835656.00
  11354 835742.10
  11356 835826.40
  11358 835910.55
  11360 835995.15
  11362 836081.10
  11364 836165.40
  11366 836248.20
  11368 836332.65
  11370 836417.10
  11372 836501.85
  11374 836584.50
  11376 836669.10
  11378 836751.90
  11380 836834.70
  11382 836919.45
  11384 837002.40
  11386 837085.35
  11388 837168.60
  11390 837251.40
  11392 837334.50
  11394 837417.60
  11396 837499.05
  11398 837582.15
  11400 837663.60
  11402 837746.70
  11404 837828.30
  11406 837909.75
  11408 837991.20
  11410 838074.60
  11412 838154.55
  11414 838236.15
  11416 838317.60
  11418 838399.20
  11420 838480.95
  11422 838561.20
  11424 838642.80
  11426 838722.90
  11428 838804.50
  11430 838884.75
  11432 838964.85
  11434 839044.95
  11436 839125.20
  11438 839205.30
  11440 839285.55
  11442 839365.80
  11444 839445.90
  11446 839524.65
  11448 839604.90
  11450 839683.65
  11452 839762.10
  11454 839842.65
  11456 839921.10
  11458 840000.00
  11460 840078.60
  11462 840157.35
  11464 840236.10
  11466 840315.00
  11468 840393.90
  11470 840470.85
  11472 840549.90
  11474 840626.85
  11476 840705.90
  11478 840783.15
  11480 840860.40
  11482 840939.30
  11484 841014.90
  11486 841093.95
  11488 841169.70
  11490 841246.95
  11492 841324.20
  11494 841401.60
  11496 841477.35
  11498 841554.75
  11500 841630.35
  11502 841708.20
  11504 841783.80
  11506 841859.70
  11508 841935.60
  11510 842011.35
  11512 842087.40
  11514 842163.15
  11516 842239.05
  11518 842315.10
  11520 842389.20
  11522 842465.25
  11524 842539.50
  11526 842615.70
  11528 842689.95
  11530 842764.35
  11532 842840.40
  11534 842914.65
  11536 842989.20
  11538 843063.75
  11540 843136.20
  11542 843210.90
  11544 843285.30
  11546 843360.00
  11548 843432.60
  11550 843507.15
  11552 843580.20
  11554 843652.95
  11556 843725.85
  11558 843798.90
  11560 843873.45
  11562 843946.50
  11564 844017.60
  11566 844090.80
  11568 844163.85
  11570 844236.90
  11572 844308.15
  11574 844381.20
  11576 844452.45
  11578 844525.80
  11580 844597.20
  11582 844668.60
  11584 844740.15
  11586 844811.55
  11588 844882.95
  11590 844954.50
  11592 845026.20
  11594 845097.75
  11596 845167.65
  11598 845239.35
  11600 845308.95
  11602 845380.65
  11604 845450.70
  11606 845522.40
  11608 845592.30
  11610 845662.35
  11612 845732.40
  11614 845802.30
  11616 845872.50
  11618 845942.55
  11620 846010.80
  11622 846081.00
  11624 846149.40
  11626 846219.30
  11628 846287.85
  11630 846358.20
  11632 846426.60
  11634 846495.15
  11636 846563.85
  11638 846632.25
  11640 846700.65
  11642 846769.20
  11644 846837.90
  11646 846906.30
  11648 846973.35
  11650 847042.20
  11652 847110.60
  11654 847177.65
  11656 847244.55
  11658 847311.60
  11660 847380.45
  11662 847447.35
  11664 847514.40
  11666 847581.60
  11668 847648.50
  11670 847715.85
  11672 847781.10
  11674 847848.15
  11676 847915.50
  11678 847980.60
  11680 848047.95
  11682 848113.35
  11684 848178.90
  11686 848244.45
  11688 848309.85
  11690 848375.55
  11692 848442.90
  11694 848506.50
  11696 848572.20
  11698 848638.05
  11700 848703.60
  11702 848767.35
  11704 848833.20
  11706 848896.95
  11708 848962.65
  11710 849026.70
  11712 849090.75
  11714 849154.65
  11716 849218.85
  11718 849284.70
  11720 849346.80
  11722 849411.00
  11724 849475.05
  11726 849539.40
  11728 849601.65
  11730 849665.85
  11732 849728.10
  11734 849792.30
  11736 849854.85
  11738 849919.20
  11740 849981.60
  11742 850044.30
  11744 850106.70
  11746 850169.10
  11748 850231.80
  11750 850259.70
  11752 850289.70
  11754 850352.10
  11756 850415.10
  11758 850475.70
  11760 850536.60
  11762 850599.30
  11764 850660.35
  11766 850721.40
  11768 850784.40
  11770 850845.15
  11772 850906.35
  11774 850967.40
  11776 851026.65
  11778 851087.85
  11780 851149.20
  11782 851210.25
  11784 851269.50
  11786 851330.85
  11788 851390.40
  11790 851449.80
  11792 851511.30
  11794 851570.85
  11796 851630.55
  11798 851689.80
  11800 851749.65
  11802 851809.50
  11804 851868.90
  11806 851928.60
  11808 851986.65
  11810 852046.35
  11812 852104.40
  11814 852164.25
  11816 852222.30
  11818 852282.30
  11820 852340.20
  11822 852398.40
  11824 852456.30
  11826 852514.65
  11828 852572.85
  11830 852631.20
  11832 852689.40
  11834 852747.60
  11836 852804.15
  11838 852862.35
  11840 852918.90
  11842 852977.25
  11844 853033.95
  11846 853092.45
  11848 853149.15
  11850 853205.55
  11852 853262.40
  11854 853319.10
  11856 853376.10
  11858 853432.65
  11860 853489.65
  11862 853546.20
  11864 853601.25
  11866 853658.10
  11868 853713.15
  11870 853770.15
  11872 853825.20
  11874 853880.40
  11876 853937.55
  11878 853992.60
  11880 854047.80
  11882 854103.15
  11884 854158.50
  11886 854213.85
  11888 854269.20
  11890 854322.60
  11892 854377.95
  11894 854433.45
  11896 854486.85
  11898 854542.50
  11900 854596.20
  11902 854649.90
  11904 854705.40
  11906 854759.10
  11908 854812.80
  11910 854866.65
  11912 854920.50
  11914 854974.35
  11916 855028.05
  11918 855080.10
  11920 855133.95
  11922 855188.10
  11924 855240.15
  11926 855294.15
  11928 855346.20
  11930 855400.35
  11932 855452.55
  11934 855504.90
  11936 855557.10
  11938 855609.45
  11940 855661.80
  11942 855714.00
  11944 855766.35
  11946 855818.85
  11948 855869.55
  11950 855921.90
  11952 855974.55
  11954 856025.10
  11956 856077.60
  11958 856128.30
  11960 856179.00
  11962 856229.85
  11964 856282.65
  11966 856331.40
  11968 856384.20
  11970 856433.10
  11972 856483.95
  11974 856534.80
  11976 856585.80
  11978 856636.80
  11980 856686.00
  11982 856737.00
  11984 856786.20
  11986 856837.20
  11988 856886.40
  11990 856935.75
  11992 856985.10
  11994 857034.15
  11996 857083.65
  11998 857132.85
  12000 857182.35
  12002 857231.70
  12004 857281.35
  12006 857330.70
  12008 857378.25
  12010 857427.75
  12012 857475.30
  12014 857525.25
  12016 857572.80
  12018 857620.35
  12020 857670.15
  12022 857717.85
  12024 857765.70
  12026 857813.40
  12028 857861.40
  12030 857909.40
  12032 857955.30
  12034 858003.15
  12036 858051.30
  12038 858099.30
  12040 858145.65
  12042 858193.50
  12044 858239.85
  12046 858286.05
  12048 858334.20
  12050 858380.40
  12052 858426.75
  12054 858472.95
  12056 858519.30
  12058 858565.80
  12060 858612.15
  12062 858658.35
  12064 858703.05
  12066 858749.85
  12068 858794.10
  12070 858840.90
  12072 858887.40
  12074 858931.95
  12076 858976.65
  12078 859023.30
  12080 859068.15
  12082 859112.85
  12084 859157.85
  12086 859202.40
  12088 859247.40
  12090 859292.40
  12092 859337.25
  12094 859380.30
  12096 859425.30
  12098 859470.30
  12100 859513.35
  12102 859556.55
  12104 859601.55
  12106 859644.60
  12108 859688.10
  12110 859733.25
  12112 859776.15
  12114 859819.50
  12116 859863.00
  12118 859906.20
  12120 859949.70
  12122 859991.25
  12124 860034.60
  12126 860077.95
  12128 860119.65
  12130 860163.00
  12132 860204.85
  12134 860248.35
  12136 860289.90
  12138 860331.60
  12140 860375.10
  12142 860416.95
  12144 860458.65
  12146 860500.65
  12148 860542.35
  12150 860584.20
  12152 860624.10
  12154 860666.10
  12156 860707.95
  12158 860748.00
  12160 860789.85
  12162 860832.00
  12164 860872.20
  12166 860912.10
  12168 860954.25
  12170 860994.30
  12172 861034.65
  12174 861075.00
  12176 861115.20
  12178 861155.40
  12180 861195.60
  12182 861235.95
  12184 861274.50
  12186 861314.85
  12188 861355.35
  12190 861393.75
  12192 861434.10
  12194 861472.65
  12196 861513.15
  12198 861551.70
  12200 861590.70
  12202 861629.10
  12204 861669.60
  12206 861708.30
  12208 861747.15
  12210 861785.85
  12212 861822.75
  12214 861861.45
  12216 861900.30
  12218 861939.00
  12220 861976.05
  12222 862014.90
  12224 862051.95
  12226 862089.15
  12228 862128.00
  12230 862165.20
  12232 862202.10
  12234 862241.10
  12236 862278.30
  12238 862315.35
  12240 862352.70
  12242 862387.80
  12244 862425.15
  12246 862462.35
  12248 862499.55
  12250 862505.40
  12252 862513.20
  12254 862548.75
  12256 862586.10
  12258 862621.35
  12260 862658.85
  12262 862694.40
  12264 862729.95
  12266 862765.65
  12268 862801.35
  12270 862836.75
  12272 862872.45
  12274 862908.30
  12276 862943.85
  12278 862979.70
  12280 863013.60
  12282 863049.45
  12284 863085.30
  12286 863119.20
  12288 863155.05
  12290 863189.10
  12292 863223.30
  12294 863257.35
  12296 863293.35
  12298 863327.40
  12300 863361.45
  12302 863395.80
  12304 863430.15
  12306 863464.20
  12308 863496.60
  12310 863530.80
  12312 863565.15
  12314 863599.65
  12316 863632.20
  12318 863666.40
  12320 863698.95
  12322 863731.50
  12324 863765.85
  12326 863798.55
  12328 863830.95
  12330 863863.80
  12332 863896.35
  12334 863929.20
  12336 863961.90
  12338 863994.60
  12340 864027.30
  12342 864060.15
  12344 864091.20
  12346 864124.20
  12348 864156.90
  12350 864187.80
  12352 864220.80
  12354 864252.00
  12356 864282.90
  12358 864314.10
  12360 864347.10
  12362 864378.15
  12364 864409.50
  12366 864440.70
  12368 864471.90
  12370 864503.10
  12372 864534.45
  12374 864564.15
  12376 864595.05
  12378 864626.70
  12380 864655.95
  12382 864687.45
  12384 864717.15
  12386 864748.50
  12388 864778.05
  12390 864807.60
  12392 864839.10
  12394 864868.80
  12396 864898.65
  12398 864928.35
  12400 864958.05
  12402 864987.75
  12404 865015.50
  12406 865045.50
  12408 865075.20
  12410 865105.05
  12412 865133.10
  12414 865163.10
  12416 865191.00
  12418 865221.00
  12420 865249.20
  12422 865277.10
  12424 865307.25
  12426 865335.45
  12428 865363.65
  12430 865391.55
  12432 865420.05
  12434 865448.25
  12436 865476.30
  12438 865504.80
  12440 865531.35
  12442 865559.70
  12444 865587.90
  12446 865614.30
  12448 865642.80
  12450 865669.50
  12452 865698.00
  12454 865724.40
  12456 865751.10
  12458 865779.60
  12460 865806.15
  12462 865833.00
  12464 865859.70
  12466 865886.40
  12468 865913.10
  12470 865939.80
  12472 865964.85
  12474 865991.55
  12476 866018.70
  12478 866043.60
  12480 866070.45
  12482 866095.20
  12484 866122.20
  12486 866147.55
  12488 866174.40
  12490 866199.60
  12492 866224.65
  12494 866249.70
  12496 866274.90
  12498 866300.10
  12500 866325.30
  12502 866350.65
  12504 866376.00
  12506 866401.20
  12508 866426.40
  12510 866449.80
  12512 866475.30
  12514 866498.85
  12516 866524.20
  12518 866547.75
  12520 866573.10
  12522 866596.65
  12524 866620.20
  12526 866645.85
  12528 866669.55
  12530 866693.10
  12532 866716.80
  12534 866740.50
  12536 866764.20
  12538 866785.95
  12540 866809.80
  12542 866833.80
  12544 866857.65
  12546 866879.55
  12548 866903.10
  12550 866925.30
  12552 866949.15
  12554 866971.20
  12556 866995.20
  12558 867017.25
  12560 867039.15
  12562 867061.35
  12564 867083.55
  12566 867105.60
  12568 867127.80
  12570 867150.15
  12572 867172.35
  12574 867194.40
  12576 867216.75
  12578 867237.15
  12580 867259.50
  12582 867279.90
  12584 867302.25
  12586 867322.65
  12588 867345.15
  12590 867365.55
  12592 867386.10
  12594 867408.60
  12596 867429.15
  12598 867449.85
  12600 867470.25
  12602 867491.10
  12604 867511.65
  12606 867532.35
  12608 867553.20
  12610 867571.95
  12612 867592.65
  12614 867613.35
  12616 867632.25
  12618 867653.10
  12620 867671.85
  12622 867692.85
  12624 867711.75
  12626 867730.80
  12628 867751.80
  12630 867770.70
  12632 867789.75
  12634 867808.80
  12636 867828.15
  12638 867847.05
  12640 867866.10
  12642 867885.30
  12644 867904.65
  12646 867921.90
  12648 867941.10
  12650 867960.30
  12652 867977.70
  12654 867996.90
  12656 868014.15
  12658 868033.65
  12660 868051.05
  12662 868068.60
  12664 868087.95
  12666 868105.35
  12668 868122.90
  12670 868140.30
  12672 868158.00
  12674 868175.70
  12676 868193.10
  12678 868210.65
  12680 868226.55
  12682 868244.10
  12684 868261.80
  12686 868277.70
  12688 868295.40
  12690 868311.30
  12692 868328.85
  12694 868344.75
  12696 868362.45
  12698 868378.65
  12700 868394.40
  12702 868410.30
  12704 868426.20
  12706 868444.20
  12708 868458.30
  12710 868474.35
  12712 868490.40
  12714 868506.60
  12716 868522.65
  12718 868538.70
  12720 868552.80
  12722 868568.85
  12724 868583.10
  12726 868599.30
  12728 868613.70
  12730 868629.90
  12732 868644.15
  12734 868658.70
  12736 868674.90
  12738 868689.30
  12740 868703.85
  12742 868718.10
  12744 868732.50
  12746 868746.90
  12748 868761.45
  12750 868749.90
  12752 868736.55
  12754 868751.10
  12756 868765.65
  12758 868778.10
  12760 868792.95
  12762 868807.65
  12764 868820.40
  12766 868833.15
  12768 868847.85
  12770 868860.60
  12772 868873.35
  12774 868886.40
  12776 868899.15
  12778 868914.15
  12780 868926.90
  12782 868939.95
  12784 868952.85
  12786 868964.10
  12788 868977.00
  12790 868990.05
  12792 869003.40
  12794 869014.50
  12796 869027.70
  12798 869038.65
  12800 869051.85
  12802 869063.25
  12804 869076.45
  12806 869087.70
  12808 869099.25
  12810 869110.50
  12812 869121.90
  12814 869135.40
  12816 869146.65
  12818 869158.20
  12820 869167.80
  12822 869179.35
  12824 869190.90
  12826 869202.30
  12828 869214.00
  12830 869223.75
  12832 869235.30
  12834 869247.15
  12836 869256.75
  12838 869266.50
  12840 869278.35
  12842 869288.10
  12844 869298.00
  12846 869309.70
  12848 869319.75
  12850 869329.65
  12852 869339.55
  12854 869349.60
  12856 869359.65
  12858 869369.70
  12860 869379.60
  12862 869389.65
  12864 869397.90
  12866 869407.80
  12868 869418.00
  12870 869426.40
  12872 869436.60
  12874 869444.85
  12876 869455.20
  12878 869463.30
  12880 869473.65
  12882 869481.90
  12884 869490.45
  12886 869498.85
  12888 869507.40
  12890 869515.65
  12892 869524.20
  12894 869532.60
  12896 869541.45
  12898 869550.00
  12900 869558.55
  12902 869566.95
  12904 869573.55
  12906 869582.40
  12908 869590.95
  12910 869598.00
  12912 869606.55
  12914 869613.45
  12916 869620.20
  12918 869629.05
  12920 869635.80
  12922 869642.70
  12924 869649.60
  12926 869656.65
  12928 869665.35
  12930 869672.55
  12932 869679.45
  12934 869684.70
  12936 869691.75
  12938 869698.95
  12940 869705.85
  12942 869713.05
  12944 869718.15
  12946 869725.50
  12948 869730.60
  12950 869737.95
  12952 869743.20
  12954 869750.55
  12956 869755.65
  12958 869761.20
  12960 869766.60
  12962 869773.95
  12964 869779.35
  12966 869785.05
  12968 869790.15
  12970 869795.85
  12972 869801.40
  12974 869806.80
  12976 869810.70
  12978 869816.10
  12980 869821.80
  12982 869827.35
  12984 869831.10
  12986 869836.80
  12988 869840.70
  12990 869846.25
  12992 869850.15
  12994 869855.85
  12996 869859.75
  12998 869863.65
  13000 869867.55
  13002 869873.40
  13004 869877.30
  13006 869881.50
  13008 869885.25
  13010 869889.30
  13012 869891.40
  13014 869895.45
  13016 869899.65
  13018 869903.70
  13020 869907.60
  13022 869909.85
  13024 869914.20
  13026 869916.45
  13028 869920.65
  13030 869922.90
  13032 869927.10
  13034 869929.35
  13036 869931.90
  13038 869936.25
  13040 869938.65
  13042 869941.05
  13044 869943.45
  13046 869946.00
  13048 869948.40
  13050 869950.80
  13052 869953.35
  13054 869956.05
  13056 869956.65
  13058 869959.20
  13060 869961.75
  13062 869962.50
  13064 869965.20
  13066 869965.95
  13068 869968.65
  13070 869969.40
  13072 869972.10
  13074 869972.85
  13076 869973.90
  13078 869976.45
  13080 869977.50
  13082 869978.40
  13084 869979.45
  13086 869980.20
  13088 869981.25
  13090 869982.30
  13092 869983.20
  13094 869984.25
  13096 869983.35
  13098 869984.70
  13100 869985.30
  13102 869984.70
  13104 869985.75
  13106 869987.10
  13108 869986.20
  13110 869985.60
  13112 869986.65
  13114 869986.05
  13116 869985.30
  13118 869986.65
  13120 869985.90
  13122 869985.30
  13124 869984.85
  13126 869984.40
  13128 869983.65
  13130 869983.20
  13132 869982.60
  13134 869982.15
  13136 869981.70
  13138 869979.30
  13140 869978.85
  13142 869978.25
  13144 869976.00
  13146 869975.85
  13148 869973.45
  13150 869973.15
  13152 869970.75
  13154 869968.65
  13156 869968.20
  13158 869966.10
  13160 869964.00
  13162 869961.75
  13164 869959.65
  13166 869959.35
  13168 869955.45
  13170 869953.35
  13172 869951.40
  13174 869949.15
  13176 869947.35
  13178 869945.25
  13180 869941.35
  13182 869939.55
  13184 869937.60
  13186 869933.70
  13188 869931.90
  13190 869928.00
  13192 869926.20
  13194 869922.15
  13196 869918.70
  13198 869916.60
  13200 869913.00
  13202 869909.25
  13204 869905.65
  13206 869901.90
  13208 869898.30
  13210 869894.70
  13212 869891.10
  13214 869887.65
  13216 869884.05
  13218 869880.30
  13220 869874.90
  13222 869871.45
  13224 869868.15
  13226 869862.60
  13228 869859.15
  13230 869855.70
  13232 869850.15
  13234 869844.90
  13236 869841.60
  13238 869836.35
  13240 869831.10
  13242 869827.80
  13244 869822.40
  13246 869817.30
  13248 869812.20
  13250 869783.25
  13252 869754.15
  13254 869749.20
  13256 869744.10
  13258 869739.00
  13260 869731.80
  13262 869727.00
  13264 869721.90
  13266 869715.00
  13268 869710.20
  13270 869704.80
  13272 869698.20
  13274 869691.30
  13276 869686.35
  13278 869679.60
  13280 869674.80
  13282 869668.05
  13284 869661.15
  13286 869654.55
  13288 869647.80
  13290 869641.20
  13292 869634.45
  13294 869628.00
  13296 869621.55
  13298 869614.80
  13300 869608.20
  13302 869601.60
  13304 869595.30
  13306 869586.90
  13308 869580.30
  13310 869573.85
  13312 869565.45
  13314 869559.15
  13316 869550.90
  13318 869544.60
  13320 869536.20
  13322 869528.10
  13324 869521.65
  13326 869513.55
  13328 869505.30
  13330 869497.20
  13332 869489.10
  13334 869481.00
  13336 869472.90
  13338 869464.80
  13340 869456.85
  13342 869448.90
  13344 869440.95
  13346 869431.05
  13348 869423.10
  13350 869415.00
  13352 869407.05
  13354 869397.30
  13356 869389.35
  13358 869379.75
  13360 869371.80
  13362 869362.20
  13364 869352.30
  13366 869344.65
  13368 869335.05
  13370 869325.30
  13372 869315.85
  13374 869306.40
  13376 869298.45
  13378 869287.05
  13380 869277.60
  13382 869268.15
  13384 869258.70
  13386 869249.10
  13388 869239.65
  13390 869230.20
  13392 869218.80
  13394 869209.50
  13396 869200.05
  13398 869188.80
  13400 869179.65
  13402 869168.10
  13404 869159.10
  13406 869147.85
  13408 869136.75
  13410 869127.45
  13412 869116.50
  13414 869105.40
  13416 869094.15
  13418 869083.05
  13420 869072.10
  13422 869061.00
  13424 869050.20
  13426 869039.25
  13428 869028.15
  13430 869017.35
  13432 869006.25
  13434 868995.60
  13436 868982.85
  13438 868971.90
  13440 868960.95
  13442 868948.20
  13444 868937.40
  13446 868924.80
  13448 868914.00
  13450 868901.40
  13452 868888.80
  13454 868878.15
  13456 868865.55
  13458 868852.80
  13460 868840.35
  13462 868827.90
  13464 868815.45
  13466 868803.00
  13468 868790.40
  13470 868778.10
  13472 868765.50
  13474 868753.20
  13476 868740.90
  13478 868728.30
  13480 868714.20
  13482 868701.90
  13484 868689.45
  13486 868675.35
  13488 868663.05
  13490 868648.95
  13492 868636.80
  13494 868622.70
  13496 868608.45
  13498 868596.30
  13500 868582.20
  13502 868568.25
  13504 868554.30
  13506 868542.30
  13508 868528.05
  13510 868514.10
  13512 868500.15
  13514 868486.20
  13516 868472.40
  13518 868456.65
  13520 868442.70
  13522 868428.90
  13524 868414.95
  13526 868401.30
  13528 868385.55
  13530 868371.90
  13532 868356.15
  13534 868342.35
  13536 868326.75
  13538 868313.10
  13540 868297.50
  13542 868281.90
  13544 868268.40
  13546 868252.65
  13548 868237.20
  13550 868221.60
  13552 868206.30
  13554 868190.85
  13556 868177.35
  13558 868159.95
  13560 868144.65
  13562 868129.20
  13564 868113.75
  13566 868098.30
  13568 868083.15
  13570 868066.05
  13572 868050.75
  13574 868035.30
  13576 868018.20
  13578 868003.05
  13580 867985.80
  13582 867970.80
  13584 867953.70
  13586 867938.55
  13588 867921.30
  13590 867904.50
  13592 867889.35
  13594 867872.40
  13596 867855.30
  13598 867838.35
  13600 867821.40
  13602 867804.45
  13604 867787.65
  13606 867770.85
  13608 867754.05
  13610 867737.10
  13612 867720.15
  13614 867701.55
  13616 867684.90
  13618 867668.10
  13620 867651.30
  13622 867632.70
  13624 867616.05
  13626 867597.15
  13628 867580.50
  13630 867562.05
  13632 867545.40
  13634 867526.95
  13636 867508.50
  13638 867489.90
  13640 867473.25
  13642 867454.80
  13644 867436.50
  13646 867418.05
  13648 867399.60
  13650 867381.15
  13652 867362.70
  13654 867344.55
  13656 867326.10
  13658 867307.95
  13660 867287.70
  13662 867269.55
  13664 867251.10
  13666 867231.00
  13668 867212.85
  13670 867194.70
  13672 867174.30
  13674 867156.30
  13676 867136.20
  13678 867116.10
  13680 867098.10
  13682 867078.00
  13684 867058.20
  13686 867039.90
  13688 867020.10
  13690 867000.15
  13692 866979.90
  13694 866960.10
  13696 866940.30
  13698 866920.35
  13700 866900.70
  13702 866880.90
  13704 866860.95
  13706 866841.15
  13708 866819.40
  13710 866799.75
  13712 866780.10
  13714 866760.30
  13716 866738.70
  13718 866718.90
  13720 866697.30
  13722 866677.65
  13724 866656.20
  13726 866636.55
  13728 866615.10
  13730 866593.50
  13732 866571.90
  13734 866552.40
  13736 866530.80
  13738 866509.65
  13740 866488.20
  13742 866466.75
  13744 866445.15
  13746 866423.85
  13748 866402.70
  13750 864084.30
  13752 861777.90
  13754 861756.60
  13756 861733.95
  13758 861713.70
  13760 861693.90
  13762 861672.60
  13764 861653.85
  13766 861635.10
  13768 861615.15
  13770 861597.60
  13772 861578.70
  13774 861562.20
  13776 861544.20
  13778 861526.50
  13780 861509.25
  13782 861494.55
  13784 861478.05
  13786 861462.30
  13788 861447.15
  13790 861432.15
  13792 861417.90
  13794 861403.80
  13796 861390.30
  13798 861377.10
  13800 861364.65
  13802 861352.50
  13804 861340.80
  13806 861327.90
  13808 861317.10
  13810 861306.60
  13812 861294.90
  13814 861285.60
  13816 861274.80
  13818 861266.25
  13820 861256.35
  13822 861248.85
  13824 861239.85
  13826 861231.30
  13828 861225.15
  13830 861217.65
  13832 861210.45
  13834 861203.85
  13836 861197.55
  13838 861193.80
  13840 861188.40
  13842 861183.60
  13844 861179.40
  13846 861175.35
  13848 861170.10
  13850 861166.95
  13852 861164.40
  13854 861162.60
  13856 861160.80
  13858 861158.10
  13860 861157.20
  13862 861156.90
  13864 861155.55
  13866 861156.15
  13868 861155.40
  13870 861157.20
  13872 861157.35
  13874 861158.10
  13876 861161.10
  13878 861162.60
  13880 861164.85
  13882 861167.40
  13884 861172.20
  13886 861175.80
  13888 861179.70
  13890 861184.05
  13892 861189.15
  13894 861194.40
  13896 861200.25
  13898 861206.40
  13900 861211.35
  13902 861218.70
  13904 861226.35
  13906 861234.30
  13908 861241.20
  13910 861250.35
  13912 861259.95
  13914 861268.20
  13916 861278.55
  13918 861287.70
  13920 861298.95
  13922 861309.15
  13924 861319.65
  13926 861332.40
  13928 861343.80
  13930 861355.80
  13932 861370.05
  13934 861382.95
  13936 861396.30
  13938 861410.10
  13940 861424.35
  13942 861439.05
  13944 861454.35
  13946 861469.80
  13948 861486.15
  13950 861502.80
  13952 861518.10
  13954 861535.65
  13956 861553.65
  13958 861572.10
  13960 861589.35
  13962 861608.85
  13964 861627.00
  13966 861647.55
  13968 861666.15
  13970 861687.75
  13972 861707.85
  13974 861730.20
  13976 861751.05
  13978 861772.35
  13980 861796.35
  13982 861818.40
  13984 861841.35
  13986 861864.75
  13988 861888.60
  13990 861912.90
  13992 861937.65
  13994 861962.85
  13996 861988.65
  13998 862014.60
  14000 862019.10
  14002 861979.20
  14004 861917.10
  14006 861855.00
  14008 861791.40
  14010 861729.60
  14012 861668.10
  14014 861604.65
  14016 861543.60
  14018 861480.75
  14020 861419.70
  14022 861357.00
  14024 861296.40
  14026 861234.00
  14028 861171.90
  14030 861111.60
  14032 861049.65
  14034 860988.00
  14036 860926.20
  14038 860866.80
  14040 860805.45
  14042 860744.40
  14044 860683.35
  14046 860622.45
  14048 860561.70
  14050 860501.10
  14052 860438.85
  14054 860378.70
  14056 860318.70
  14058 860258.70
  14060 860198.85
  14062 860137.35
  14064 860077.80
  14066 860018.40
  14068 859957.20
  14070 859898.40
  14072 859837.65
  14074 859778.85
  14076 859718.10
  14078 859658.10
  14080 859599.75
  14082 859539.60
  14084 859479.90
  14086 859422.00
  14088 859362.30
  14090 859302.90
  14092 859243.80
  14094 859184.70
  14096 859125.60
  14098 859066.80
  14100 859008.00
  14102 858949.65
  14104 858891.15
  14106 858832.95
  14108 858775.05
  14110 858715.35
  14112 858657.30
  14114 858599.85
  14116 858540.60
  14118 858483.30
  14120 858426.15
  14122 858367.20
  14124 858310.35
  14126 858251.70
  14128 858195.15
  14130 858136.80
  14132 858078.75
  14134 858022.65
  14136 857964.90
  14138 857907.15
  14140 857851.50
  14142 857794.05
  14144 857737.05
  14146 857679.90
  14148 857623.05
  14150 857566.20
  14152 857509.35
  14154 857453.10
  14156 857396.85
  14158 857340.60
  14160 857284.65
  14162 857226.90
  14164 857171.25
  14166 857115.60
  14168 857060.40
  14170 857003.10
  14172 856948.05
  14174 856893.15
  14176 856836.30
  14178 856781.70
  14180 856725.30
  14182 856669.20
  14184 856615.05
  14186 856559.10
  14188 856503.30
  14190 856449.60
  14192 856393.95
  14194 856338.75
  14196 856283.70
  14198 856230.45
  14200 856175.55
  14202 856120.80
  14204 856066.20
  14206 856012.05
  14208 855957.75
  14210 855903.60
  14212 855849.60
  14214 855793.95
  14216 855740.10
  14218 855686.70
  14220 855633.30
  14222 855578.40
  14224 855525.45
  14226 855472.65
  14228 855417.90
  14230 855365.25
  14232 855310.95
  14234 855258.60
  14236 855204.75
  14238 855152.70
  14240 855099.00
  14242 855045.45
  14244 854993.85
  14246 854940.60
  14248 854887.65
  14250 854834.55
  14252 854783.55
  14254 854730.90
  14256 854678.70
  14258 854626.20
  14260 854573.85
  14262 854521.95
  14264 854470.20
  14266 854418.30
  14268 854364.90
  14270 854313.45
  14272 854262.15
  14274 854211.15
  14276 854160.15
  14278 854107.35
  14280 854056.80
  14282 854004.45
  14284 853953.90
  14286 853903.80
  14288 853851.90
  14290 853801.95
  14292 853750.20
  14294 853698.90
  14296 853649.55
  14298 853598.10
  14300 853547.10
  14302 853498.20
  14304 853447.50
  14306 853396.80
  14308 853346.70
  14310 853296.30
  14312 853246.20
  14314 853196.25
  14316 853146.30
  14318 853096.65
  14320 853047.30
  14322 852997.80
  14324 852948.60
  14326 852899.70
  14328 852850.80
  14330 852800.25
  14332 852751.65
  14334 852703.20
  14336 852654.60
  14338 852604.80
  14340 852556.80
  14342 852507.15
  14344 852459.45
  14346 852410.25
  14348 852362.70
  14350 852313.50
  14352 852264.75
  14354 852217.65
  14356 852169.20
  14358 852120.75
  14360 852074.25
  14362 852025.95
  14364 851977.95
  14366 851930.25
  14368 851882.40
  14370 851834.85
  14372 851787.60
  14374 851740.35
  14376 851692.95
  14378 851646.15
  14380 851599.50
  14382 851552.70
  14384 851506.20
  14386 851458.05
  14388 851412.00
  14390 851365.65
  14392 851318.10
  14394 851272.35
  14396 851226.90
  14398 851179.65
  14400 851134.20
  14402 851087.10
  14404 851042.40
  14406 850995.60
  14408 850949.10
  14410 850904.70
  14412 850858.35
  14414 850812.30
  14416 850768.20
  14418 850722.30
  14420 850676.85
  14422 850631.40
  14424 850586.10
  14426 850540.80
  14428 850495.80
  14430 850450.95
  14432 850406.40
  14434 850361.85
  14436 850317.30
  14438 850273.20
  14440 850229.40
  14442 850185.30
  14444 850141.65
  14446 850096.05
  14448 850052.40
  14450 850009.35
  14452 849964.35
  14454 849921.15
  14456 849876.45
  14458 849833.70
  14460 849789.30
  14462 849747.00
  14464 849702.90
  14466 849660.75
  14468 849616.95
  14470 849573.30
  14472 849531.90
  14474 849488.40
  14476 849445.35
  14478 849402.15
  14480 849359.40
  14482 849318.45
  14484 849276.15
  14486 849233.55
  14488 849191.25
  14490 849149.10
  14492 849107.25
  14494 849063.45
  14496 849021.90
  14498 848980.35
  14500 851712.15
  14502 854462.70
  14504 854419.95
  14506 854379.30
  14508 854338.50
  14510 854297.85
  14512 854255.40
  14514 854214.90
  14516 854172.30
  14518 854131.80
  14520 854089.20
  14522 854048.70
  14524 854006.40
  14526 853964.10
  14528 853923.45
  14530 853881.15
  14532 853838.85
  14534 853798.35
  14536 853756.20
  14538 853713.90
  14540 853671.60
  14542 853629.60
  14544 853587.30
  14546 853545.15
  14548 853503.00
  14550 853461.00
  14552 853418.85
  14554 853376.85
  14556 853334.85
  14558 853292.70
  14560 853248.75
  14562 853206.60
  14564 853164.90
  14566 853122.90
  14568 853079.10
  14570 853037.10
  14572 852995.40
  14574 852951.45
  14576 852909.75
  14578 852865.95
  14580 852824.25
  14582 852780.45
  14584 852736.95
  14586 852695.10
  14588 852651.45
  14590 852608.10
  14592 852566.25
  14594 852522.75
  14596 852479.25
  14598 852435.75
  14600 852392.25
  14602 852350.70
  14604 852307.20
  14606 852263.85
  14608 852220.50
  14610 852177.15
  14612 852133.65
  14614 852088.65
  14616 852045.30
  14618 852001.95
  14620 851958.60
  14622 851915.55
  14624 851870.55
  14626 851827.20
  14628 851784.00
  14630 851739.00
  14632 851695.80
  14634 851652.60
  14636 851607.75
  14638 851564.70
  14640 851519.70
  14642 851476.65
  14644 851431.80
  14646 851386.80
  14648 851343.90
  14650 851299.20
  14652 851254.20
  14654 851211.30
  14656 851166.60
  14658 851121.90
  14660 851077.05
  14662 851032.50
  14664 850987.65
  14666 850943.10
  14668 850898.25
  14670 850853.70
  14672 850809.15
  14674 850764.60
  14676 850720.20
  14678 850675.35
  14680 850630.80
  14682 850586.40
  14684 850540.05
  14686 850495.65
  14688 850451.10
  14690 850404.90
  14692 850360.35
  14694 850315.95
  14696 850269.90
  14698 850225.50
  14700 850179.30
  14702 850134.90
  14704 850088.70
  14706 850044.30
  14708 849998.55
  14710 849952.35
  14712 849908.10
  14714 849862.20
  14716 849816.15
  14718 849770.10
  14720 849725.85
  14722 849679.95
  14724 849634.05
  14726 849588.15
  14728 849542.10
  14730 849496.20
  14732 849450.30
  14734 849404.40
  14736 849358.65
  14738 849312.90
  14740 849267.15
  14742 849221.40
  14744 849173.70
  14746 849127.80
  14748 849082.20
  14750 849034.65
  14752 848989.05
  14754 848943.30
  14756 848895.90
  14758 848850.15
  14760 848804.40
  14762 848757.15
  14764 848711.70
  14766 848664.15
  14768 848616.90
  14770 848571.30
  14772 848523.90
  14774 848476.65
  14776 848431.20
  14778 848383.95
  14780 848336.70
  14782 848289.30
  14784 848244.00
  14786 848196.60
  14788 848149.65
  14790 848102.40
  14792 848055.30
  14794 848008.20
  14796 847960.95
  14798 847913.85
  14800 847866.90
  14802 847819.80
  14804 847772.85
  14806 847723.80
  14808 847676.85
  14810 847629.90
  14812 847582.80
  14814 847534.20
  14816 847487.10
  14818 847440.30
  14820 847391.70
  14822 847344.90
  14824 847296.00
  14826 847249.20
  14828 847200.60
  14830 847153.65
  14832 847105.20
  14834 847058.40
  14836 847009.80
  14838 846961.05
  14840 846914.40
  14842 846866.10
  14844 846817.50
  14846 846769.20
  14848 846720.45
  14850 846674.10
  14852 846625.35
  14854 846577.05
  14856 846528.60
  14858 846480.30
  14860 846432.00
  14862 846383.55
  14864 846335.10
  14866 846286.95
  14868 846236.85
  14870 846188.70
  14872 846140.40
  14874 846092.25
  14876 846043.80
  14878 845993.85
  14880 845945.70
  14882 845897.55
  14884 845847.30
  14886 845799.30
  14888 845749.50
  14890 845701.35
  14892 845651.40
  14894 845603.25
  14896 845553.60
  14898 845505.60
  14900 845455.65
  14902 845405.85
  14904 845357.85
  14906 845308.20
  14908 845258.40
  14910 845208.60
  14912 845160.75
  14914 845110.95
  14916 845061.30
  14918 845011.80
  14920 844962.15
  14922 844912.35
  14924 844862.85
  14926 844813.20
  14928 844763.70
  14930 844714.05
  14932 844664.40
  14934 844614.90
  14936 844563.60
  14938 844514.10
  14940 844464.60
  14942 844415.10
  14944 844363.80
  14946 844314.60
  14948 844265.10
  14950 844213.95
  14952 844164.60
  14954 844113.30
  14956 844064.10
  14958 844012.80
  14960 843963.45
  14962 843912.45
  14964 843863.10
  14966 843812.25
  14968 843761.10
  14970 843711.90
  14972 843660.90
  14974 843609.90
  14976 843558.90
  14978 843509.70
  14980 843458.85
  14982 843407.85
  14984 843356.85
  14986 843305.85
  14988 843255.00
  14990 843204.30
  14992 843153.30
  14994 843102.45
  14996 843051.60
  14998 843000.90
  15000 842950.20
  15002 842899.50
  15004 842846.85
  15006 842796.15
  15008 842745.30
  15010 842694.60
  15012 842642.25
  15014 842591.70
  15016 842540.85
  15018 842488.50
  15020 842437.80
  15022 842385.30
  15024 842334.90
  15026 842282.55
  15028 842231.85
  15030 842179.65
  15032 842127.30
  15034 842076.90
  15036 842024.40
  15038 841972.20
  15040 841921.80
  15042 841869.60
  15044 841817.40
  15046 841765.20
  15048 841714.65
  15050 841662.60
  15052 841610.40
  15054 841558.35
  15056 841506.15
  15058 841454.10
  15060 841401.90
  15062 841349.85
  15064 841297.80
  15066 841245.90
  15068 841191.90
  15070 841140.15
  15072 841087.95
  15074 841035.90
  15076 840984.15
  15078 840930.30
  15080 840878.40
  15082 840826.65
  15084 840772.80
  15086 840720.90
  15088 840667.20
  15090 840615.45
  15092 840561.60
  15094 840510.00
  15096 840456.45
  15098 840404.70
  15100 840351.15
  15102 840299.25
  15104 840245.85
  15106 840192.30
  15108 840138.90
  15110 840087.30
  15112 840033.60
  15114 839980.20
  15116 839926.80
  15118 839873.25
  15120 839821.80
  15122 839768.40
  15124 839715.15
  15126 839661.60
  15128 839608.20
  15130 839554.95
  15132 839501.70
  15134 839446.50
  15136 839393.40
  15138 839340.00
  15140 839286.75
  15142 839233.50
  15144 839180.40
  15146 839125.35
  15148 839072.25
  15150 839019.15
  15152 838964.10
  15154 838910.85
  15156 838855.95
  15158 838802.85
  15160 838749.90
  15162 838695.00
  15164 838641.90
  15166 838587.15
  15168 838532.10
  15170 838479.30
  15172 838424.55
  15174 838371.60
  15176 838316.85
  15178 838261.80
  15180 838207.35
  15182 838154.40
  15184 838099.65
  15186 838045.05
  15188 837990.30
  15190 837935.85
  15192 837881.10
  15194 837826.35
  15196 837771.90
  15198 837717.15
  15200 837662.70
  15202 837608.10
  15204 837553.65
  15206 837499.20
  15208 837444.60
  15210 837390.15
  15212 837333.90
  15214 837279.45
  15216 837224.85
  15218 837170.55
  15220 837114.30
  15222 837060.00
  15224 837005.70
  15226 836949.30
  15228 836895.15
  15230 836839.05
  15232 836784.60
  15234 836728.50
  15236 836674.20
  15238 836618.25
  15240 836563.95
  15242 836507.85
  15244 836451.90
  15246 836397.60
  15248 836341.65
  15250 836285.70
  15252 836229.75
  15254 836175.60
  15256 836119.65
  15258 836063.70
  15260 836007.90
  15262 835951.80
  15264 835896.15
  15266 835840.20
  15268 835784.55
  15270 835728.60
  15272 835672.80
  15274 835617.00
  15276 835561.35
  15278 835505.70
  15280 835449.90
  15282 835392.30
  15284 835336.65
  15286 835280.70
  15288 835225.20
  15290 835167.60
  15292 835112.10
  15294 835056.60
  15296 834999.15
  15298 834943.50
  15300 834887.85
  15302 834830.55
  15304 834774.90
  15306 834717.45
  15308 834662.10
  15310 834604.80
  15312 834547.35
  15314 834492.00
  15316 834434.70
  15318 834377.55
  15320 834322.05
  15322 834264.90
  15324 834207.60
  15326 834150.30
  15328 834094.95
  15330 834037.80
  15332 833980.80
  15334 833923.65
  15336 833866.50
  15338 833809.35
  15340 833752.20
  15342 833695.20
  15344 833638.20
  15346 833581.20
  15348 833524.20
  15350 833467.20
  15352 833410.20
  15354 833351.40
  15356 833294.40
  15358 833237.40
  15360 833180.70
  15362 833123.70
  15364 833064.75
  15366 833008.05
  15368 832951.20
  15370 832892.55
  15372 832835.70
  15374 832777.05
  15376 832720.35
  15378 832661.70
  15380 832604.85
  15382 832546.35
  15384 832489.65
  15386 832431.15
  15388 832372.65
  15390 832315.65
  15392 832257.30
  15394 832198.80
  15396 832142.25
  15398 832083.90
  15400 832025.40
  15402 831966.90
  15404 831908.55
  15406 831852.00
  15408 831793.65
  15410 831735.30
  15412 831676.80
  15414 831618.60
  15416 831560.40
  15418 831502.20
  15420 831443.70
  15422 831385.35
  15424 831325.35
  15426 831267.15
  15428 831208.80
  15430 831150.75
  15432 831092.70
  15434 831032.55
  15436 830974.35
  15438 830916.30
  15440 830858.25
  15442 830798.25
  15444 830740.05
  15446 830680.20
  15448 830622.15
  15450 830564.10
  15452 830504.25
  15454 830446.20
  15456 830386.50
  15458 830326.65
  15460 830268.60
  15462 830208.90
  15464 830151.15
  15466 830091.30
  15468 830031.30
  15470 829973.70
  15472 829913.85
  15474 829854.30
  15476 829794.30
  15478 829734.75
  15480 829675.35
  15482 829617.30
  15484 829557.75
  15486 829498.35
  15488 829438.65
  15490 829379.10
  15492 829319.70
  15494 829259.85
  15496 829200.60
  15498 829141.20
  15500 828967.35
  15502 828795.45
  15504 828735.90
  15506 828676.35
  15508 828616.95
  15510 828557.55
  15512 828496.50
  15514 828437.10
  15516 828377.85
  15518 828316.80
  15520 828257.25
  15522 828196.20
  15524 828136.95
  15526 828077.85
  15528 828016.80
  15530 827957.55
  15532 827896.50
  15534 827837.25
  15536 827776.20
  15538 827715.45
  15540 827656.35
  15542 827595.60
  15544 827534.70
  15546 827475.75
  15548 827414.70
  15550 827353.95
  15552 827293.20
  15554 827232.45
  15556 827173.50
  15558 827112.90
  15560 827052.00
  15562 826991.40
  15564 826930.80
  15566 826870.20
  15568 826809.60
  15570 826748.85
  15572 826688.25
  15574 826627.65
  15576 826567.20
  15578 826506.60
  15580 826444.20
  15582 826383.90
  15584 826323.30
  15586 826262.85
  15588 826202.55
  15590 826140.15
  15592 826079.85
  15594 826019.70
  15596 825957.30
  15598 825897.15
  15600 825836.70
  15602 825774.60
  15604 825714.30
  15606 825652.20
  15608 825592.05
  15610 825530.10
  15612 825469.80
  15614 825407.85
  15616 825345.90
  15618 825285.75
  15620 825223.95
  15622 825161.85
  15624 825102.00
  15626 825039.90
  15628 824978.40
  15630 824916.30
  15632 824854.65
  15634 824794.65
  15636 824732.85
  15638 824671.20
  15640 824609.55
  15642 824547.75
  15644 824486.10
  15646 824424.30
  15648 824362.80
  15650 824301.15
  15652 824239.35
  15654 824177.85
  15656 824116.35
  15658 824054.85
  15660 823991.70
  15662 823930.05
  15664 823868.70
  15666 823807.05
  15668 823743.90
  15670 823682.40
  15672 823620.90
  15674 823559.70
  15676 823496.55
  15678 823434.90
  15680 823371.90
  15682 823310.70
  15684 823247.55
  15686 823186.35
  15688 823123.35
  15690 823062.15
  15692 822999.00
  15694 822937.80
  15696 822874.65
  15698 822811.80
  15700 822750.90
  15702 822687.90
  15704 822624.90
  15706 822563.85
  15708 822501.15
  15710 822438.15
  15712 822375.45
  15714 822312.60
  15716 822249.90
  15718 822188.85
  15720 822126.15
  15722 822063.30
  15724 822000.75
  15726 821938.20
  15728 821875.35
  15730 821812.65
  15732 821749.95
  15734 821687.40
  15736 821623.05
  15738 821560.35
  15740 821497.95
  15742 821435.70
  15744 821372.85
  15746 821310.45
  15748 821246.10
  15750 821183.70
  15752 821121.30
  15754 821057.10
  15756 820994.70
  15758 820932.15
  15760 820868.10
  15762 820805.70
  15764 820741.65
  15766 820679.40
  15768 820615.35
  15770 820552.95
  15772 820488.90
  15774 820426.80
  15776 820362.75
  15778 820298.85
  15780 820236.75
  15782 820172.70
  15784 820108.65
  15786 820046.70
  15788 819982.80
  15790 819918.90
  15792 819855.15
  15794 819791.10
  15796 819729.15
  15798 819665.40
  15800 819601.65
  15802 819537.90
  15804 819474.15
  15806 819410.40
  15808 819346.80
  15810 819283.05
  15812 819219.30
  15814 819155.85
  15816 819092.25
  15818 819028.65
  15820 818963.10
  15822 818899.65
  15824 818836.05
  15826 818772.45
  15828 818709.00
  15830 818643.75
  15832 818580.30
  15834 818516.85
  15836 818453.40
  15838 818388.15
  15840 818324.85
  15842 818259.45
  15844 818196.15
  15846 818133.00
  15848 818067.90
  15850 818004.30
  15852 817939.35
  15854 817874.40
  15856 817811.10
  15858 817746.15
  15860 817682.85
  15862 817617.75
  15864 817552.80
  15866 817489.65
  15868 817424.85
  15870 817359.90
  15872 817295.10
  15874 817231.80
  15876 817166.85
  15878 817102.20
  15880 817037.40
  15882 816972.60
  15884 816907.80
  15886 816843.15
  15888 816778.35
  15890 816715.35
  15892 816648.90
  15894 816584.25
  15896 816519.60
  15898 816454.95
  15900 816390.30
  15902 816325.65
  15904 816261.15
  15906 816196.65
  15908 816131.85
  15910 816065.70
  15912 816001.20
  15914 815936.70
  15916 815872.20
  15918 815805.75
  15920 815741.40
  15922 815676.90
  15924 815610.75
  15926 815546.40
  15928 815480.10
  15930 815415.90
  15932 815349.75
  15934 815285.40
  15936 815219.40
  15938 815155.20
  15940 815089.05
  15942 815024.85
  15944 814958.70
  15946 814894.65
  15948 814828.65
  15950 814762.80
  15952 814696.65
  15954 814632.45
  15956 814566.60
  15958 814500.75
  15960 814434.90
  15962 814370.85
  15964 814304.85
  15966 814239.15
  15968 814173.30
  15970 814107.45
  15972 814041.90
  15974 813976.20
  15976 813910.35
  15978 813844.80
  15980 813778.95
  15982 813713.25
  15984 813647.70
  15986 813582.15
  15988 813516.30
  15990 813450.90
  15992 813383.55
  15994 813317.85
  15996 813252.30
  15998 813186.90
  16000 813121.35
  16002 813054.00
  16004 812988.60
  16006 812923.05
  16008 812856.00
  16010 812790.60
  16012 812723.40
  16014 812658.00
  16016 812592.60
  16018 812525.40
  16020 812460.15
  16022 812392.95
  16024 812327.85
  16026 812260.80
  16028 812193.60
  16030 812128.35
  16032 812061.45
  16034 811996.05
  16036 811929.30
  16038 811862.25
  16040 811795.35
  16042 811730.25
  16044 811663.35
  16046 811596.60
  16048 811529.70
  16050 811462.80
  16052 811397.70
  16054 811330.80
  16056 811264.20
  16058 811197.30
  16060 811130.70
  16062 811063.80
  16064 810997.20
  16066 810930.30
  16068 810863.70
  16070 810797.10
  16072 810730.35
  16074 810664.05
  16076 810597.30
  16078 810529.05
  16080 810462.15
  16082 810395.70
  16084 810329.25
  16086 810262.65
  16088 810194.55
  16090 810127.95
  16092 810061.50
  16094 809993.25
  16096 809926.80
  16098 809860.35
  16100 809792.10
  16102 809725.80
  16104 809657.70
  16106 809591.25
  16108 809523.30
  16110 809456.85
  16112 809388.90
  16114 809322.30
  16116 809254.50
  16118 809188.35
  16120 809120.10
  16122 809052.30
  16124 808986.00
  16126 808918.20
  16128 808850.10
  16130 808782.30
  16132 808716.15
  16134 808648.20
  16136 808580.40
  16138 808512.60
  16140 808444.80
  16142 808378.65
  16144 808311.15
  16146 808243.20
  16148 808175.40
  16150 808107.75
  16152 808039.80
  16154 807972.30
  16156 807904.50
  16158 807836.85
  16160 807769.35
  16162 807701.55
  16164 807632.40
  16166 807564.60
  16168 807497.10
  16170 807429.45
  16172 807361.80
  16174 807294.45
  16176 807225.00
  16178 807157.65
  16180 807090.15
  16182 807021.15
  16184 806953.50
  16186 806885.85
  16188 806816.85
  16190 806749.35
  16192 806680.20
  16194 806613.00
  16196 806545.65
  16198 806476.35
  16200 806409.15
  16202 806340.15
  16204 806271.00
  16206 806203.80
  16208 806134.65
  16210 806067.60
  16212 805998.60
  16214 805929.45
  16216 805862.40
  16218 805793.55
  16220 805724.85
  16222 805655.85
  16224 805588.50
  16226 805519.80
  16228 805450.80
  16230 805382.10
  16232 805313.25
  16234 805244.70
  16236 805177.50
  16238 805108.65
  16240 805040.10
  16242 804971.25
  16244 804902.70
  16246 804833.85
  16248 804765.45
  16250 804696.60
  16252 804627.75
  16254 804557.70
  16256 804489.00
  16258 804420.45
  16260 804351.75
  16262 804283.35
  16264 804214.65
  16266 804144.30
  16268 804075.90
  16270 804007.35
  16272 803937.15
  16274 803868.75
  16276 803800.35
  16278 803730.15
  16280 803661.60
  16282 803593.35
  16284 803523.15
  16286 803455.05
  16288 803384.70
  16290 803316.30
  16292 803246.55
  16294 803178.15
  16296 803108.10
  16298 803039.85
  16300 802969.80
  16302 802899.90
  16304 802831.50
  16306 802761.60
  16308 802691.70
  16310 802623.60
  16312 802553.70
  16314 802483.80
  16316 802413.90
  16318 802345.80
  16320 802276.20
  16322 802206.15
  16324 802136.40
  16326 802066.65
  16328 801996.90
  16330 801928.95
  16332 801859.05
  16334 801789.60
  16336 801719.70
  16338 801650.10
  16340 801580.35
  16342 801510.75
  16344 801439.35
  16346 801369.60
  16348 801300.15
  16350 801230.55
  16352 801161.10
  16354 801091.35
  16356 801021.75
  16358 800950.65
  16360 800880.90
  16362 800811.60
  16364 800742.15
  16366 800671.05
  16368 800601.30
  16370 800532.00
  16372 800460.90
  16374 800391.60
  16376 800322.15
  16378 800251.05
  16380 800181.60
  16382 800110.65
  16384 800041.20
  16386 799970.25
  16388 799900.80
  16390 799829.85
  16392 799760.70
  16394 799689.90
  16396 799618.80
  16398 799549.35
  16400 799478.70
  16402 799407.75
  16404 799338.75
  16406 799267.65
  16408 799196.70
  16410 799126.05
  16412 799056.75
  16414 798986.10
  16416 798915.30
  16418 798844.50
  16420 798773.70
  16422 798702.90
  16424 798633.90
  16426 798563.10
  16428 798492.45
  16430 798421.80
  16432 798351.30
  16434 798280.50
  16436 798209.70
  16438 798139.20
  16440 798068.55
  16442 797996.25
  16444 797925.60
  16446 797855.25
  16448 797784.45
  16450 797714.10
  16452 797643.45
  16454 797571.15
  16456 797500.80
  16458 797430.15
  16460 797359.80
  16462 797287.65
  16464 797217.15
  16466 797146.80
  16468 797074.65
  16470 797004.30
  16472 796933.95
  16474 796861.80
  16476 796791.60
  16478 796719.45
  16480 796649.10
  16482 796577.10
  16484 796506.90
  16486 796434.90
  16488 796364.70
  16490 796292.70
  16492 796220.70
  16494 796150.65
  16496 796078.80
  16498 796006.80
  16500 795847.20
  16502 795685.80
  16504 795614.25
  16506 795543.90
  16508 795472.35
  16510 795400.50
  16512 795328.80
  16514 795256.95
  16516 795186.90
  16518 795115.35
  16520 795043.65
  16522 794971.80
  16524 794900.25
  16526 794828.70
  16528 794757.15
  16530 794685.30
  16532 794613.90
  16534 794542.20
  16536 794470.80
  16538 794399.25
  16540 794327.70
  16542 794256.30
  16544 794183.10
  16546 794111.70
  16548 794040.30
  16550 793968.90
  16552 793897.50
  16554 793824.30
  16556 793753.05
  16558 793681.65
  16560 793610.40
  16562 793537.35
  16564 793466.40
  16566 793394.85
  16568 793321.80
  16570 793250.85
  16572 793177.80
  16574 793106.85
  16576 793035.45
  16578 792962.85
  16580 792891.60
  16582 792818.70
  16584 792747.75
  16586 792674.85
  16588 792602.40
  16590 792531.15
  16592 792458.55
  16594 792387.45
  16596 792314.85
  16598 792242.10
  16600 792171.15
  16602 792098.70
  16604 792025.95
  16606 791953.35
  16608 791882.70
  16610 791810.10
  16612 791737.65
  16614 791665.05
  16616 791592.60
  16618 791520.15
  16620 791447.40
  16622 791377.05
  16624 791304.45
  16626 791232.15
  16628 791159.85
  16630 791087.55
  16632 791015.25
  16634 790942.80
  16636 790870.65
  16638 790798.20
  16640 790724.40
  16642 790651.95
  16644 790579.95
  16646 790507.65
  16648 790435.50
  16650 790363.35
  16652 790291.05
  16654 790217.40
  16656 790145.25
  16658 790073.10
  16660 789999.30
  16662 789927.30
  16664 789855.30
  16666 789781.50
  16668 789709.65
  16670 789637.65
  16672 789563.85
  16674 789492.00
  16676 789418.35
  16678 789346.65
  16680 789274.65
  16682 789201.15
  16684 789127.50
  16686 789055.65
  16688 788982.15
  16690 788910.30
  16692 788836.95
  16694 788765.25
  16696 788691.75
  16698 788618.25
  16700 788546.70
  16702 788473.20
  16704 788399.85
  16706 788326.65
  16708 788255.10
  16710 788181.75
  16712 788108.25
  16714 788035.05
  16716 787961.85
  16718 787890.15
  16720 787817.10
  16722 787743.90
  16724 787670.70
  16726 787597.65
  16728 787524.30
  16730 787451.40
  16732 787378.20
  16734 787305.15
  16736 787232.10
  16738 787159.05
  16740 787086.00
  16742 787012.95
  16744 786940.20
  16746 786867.00
  16748 786792.30
  16750 786719.55
  16752 786646.50
  16754 786573.75
  16756 786500.85
  16758 786427.95
  16760 786353.55
  16762 786280.80
  16764 786207.90
  16766 786133.20
  16768 786060.60
  16770 785987.70
  16772 785913.45
  16774 785840.70
  16776 785768.10
  16778 785693.70
  16780 785620.80
  16782 785546.70
  16784 785473.95
  16786 785399.70
  16788 785327.10
  16790 785252.70
  16792 785180.40
  16794 785106.00
  16796 785031.90
  16798 784959.30
  16800 784885.35
  16802 784810.95
  16804 784738.50
  16806 784664.55
  16808 784590.30
  16810 784518.00
  16812 784444.05
  16814 784369.95
  16816 784296.00
  16818 784223.55
  16820 784149.75
  16822 784075.50
  16824 784001.70
  16826 783927.75
  16828 783853.95
  16830 783779.85
  16832 783706.05
  16834 783632.25
  16836 783558.30
  16838 783484.65
  16840 783410.70
  16842 783337.05
  16844 783263.25
  16846 783189.30
  16848 783115.80
  16850 783042.00
  16852 782968.35
  16854 782894.70
  16856 782820.90
  16858 782745.60
  16860 782671.95
  16862 782598.45
  16864 782524.80
  16866 782449.50
  16868 782375.85
  16870 782302.35
  16872 782229.00
  16874 782153.70
  16876 782080.35
  16878 782006.85
  16880 781931.70
  16882 781858.20
  16884 781783.05
  16886 781709.70
  16888 781634.55
  16890 781561.35
  16892 781486.20
  16894 781413.15
  16896 781338.00
  16898 781264.65
  16900 781189.80
  16902 781116.30
  16904 781041.75
  16906 780966.60
  16908 780893.25
  16910 780818.70
  16912 780743.70
  16914 780670.65
  16916 780595.80
  16918 780521.10
  16920 780447.90
  16922 780373.05
  16924 780298.35
  16926 780223.50
  16928 780149.10
  16930 780074.25
  16932 780001.35
  16934 779926.65
  16936 779851.95
  16938 779777.40
  16940 779702.70
  16942 779628.30
  16944 779553.60
  16946 779479.05
  16948 779404.65
  16950 779329.95
  16952 779255.70
  16954 779181.15
  16956 779106.75
  16958 779032.20
  16960 778956.15
  16962 778881.75
  16964 778807.35
  16966 778732.80
  16968 778658.55
  16970 778584.30
  16972 778508.25
  16974 778434.00
  16976 778359.75
  16978 778285.35
  16980 778209.60
  16982 778135.20
  16984 778061.25
  16986 777985.20
  16988 777910.95
  16990 777835.20
  16992 777760.95
  16994 777686.85
  16996 777611.10
  16998 777537.00
  17000 777461.25
  17002 777387.15
  17004 777311.55
  17006 777237.45
  17008 777161.85
  17010 777086.10
  17012 777012.30
  17014 776936.40
  17016 776862.60
  17018 776787.00
  17020 776711.40
  17022 776637.60
  17024 776562.00
  17026 776486.55
  17028 776410.80
  17030 776337.00
  17032 776261.70
  17034 776186.25
  17036 776110.80
  17038 776037.00
  17040 775961.55
  17042 775886.25
  17044 775810.80
  17046 775735.50
  17048 775660.20
  17050 775584.90
  17052 775509.75
  17054 775434.15
  17056 775359.15
  17058 775283.85
  17060 775208.55
  17062 775133.40
  17064 775058.25
  17066 774982.95
  17068 774907.80
  17070 774832.65
  17072 774757.65
  17074 774682.50
  17076 774605.70
  17078 774530.70
  17080 774455.55
  17082 774380.40
  17084 774305.55
  17086 774228.75
  17088 774153.90
  17090 774078.90
  17092 774002.25
  17094 773927.25
  17096 773852.40
  17098 773775.90
  17100 773700.90
  17102 773626.05
  17104 773549.55
  17106 773474.70
  17108 773398.20
  17110 773323.50
  17112 773247.00
  17114 773172.30
  17116 773095.65
  17118 773020.95
  17120 772944.45
  17122 772869.90
  17124 772793.55
  17126 772717.20
  17128 772642.65
  17130 772566.45
  17132 772491.60
  17134 772415.40
  17136 772339.05
  17138 772262.85
  17140 772188.45
  17142 772112.10
  17144 772036.05
  17146 771959.85
  17148 771885.30
  17150 771809.10
  17152 771733.05
  17154 771656.85
  17156 771580.80
  17158 771504.60
  17160 771428.70
  17162 771354.30
  17164 771278.40
  17166 771202.35
  17168 771126.45
  17170 771050.40
  17172 770974.35
  17174 770898.60
  17176 770822.70
  17178 770746.80
  17180 770669.25
  17182 770593.35
  17184 770517.45
  17186 770441.55
  17188 770365.80
  17190 770290.05
  17192 770214.30
  17194 770136.90
  17196 770061.15
  17198 769985.40
  17200 769909.65
  17202 769832.40
  17204 769756.65
  17206 769681.05
  17208 769605.30
  17210 769528.20
  17212 769452.45
  17214 769376.85
  17216 769299.60
  17218 769224.15
  17220 769146.90
  17222 769071.30
  17224 768994.05
  17226 768918.60
  17228 768841.50
  17230 768766.05
  17232 768688.95
  17234 768613.65
  17236 768536.40
  17238 768460.95
  17240 768384.00
  17242 768308.70
  17244 768231.75
  17246 768154.65
  17248 768079.50
  17250 768002.40
  17252 767925.30
  17254 767850.30
  17256 767773.20
  17258 767696.55
  17260 767619.45
  17262 767544.30
  17264 767467.50
  17266 767390.55
  17268 767313.90
  17270 767236.95
  17272 767160.15
  17274 767085.15
  17276 767008.65
  17278 766931.70
  17280 766855.05
  17282 766778.40
  17284 766701.60
  17286 766624.95
  17288 766548.45
  17290 766471.50
  17292 766395.15
  17294 766318.50
  17296 766242.00
  17298 766165.35
  17300 766088.85
  17302 766010.70
  17304 765934.05
  17306 765857.70
  17308 765781.05
  17310 765704.70
  17312 765628.20
  17314 765550.20
  17316 765473.70
  17318 765397.20
  17320 765321.00
  17322 765242.85
  17324 765166.65
  17326 765090.15
  17328 765012.30
  17330 764935.95
  17332 764859.60
  17334 764781.75
  17336 764705.40
  17338 764627.70
  17340 764551.35
  17342 764475.30
  17344 764397.30
  17346 764320.95
  17348 764243.25
  17350 764167.20
  17352 764089.50
  17354 764013.30
  17356 763935.45
  17358 763857.75
  17360 763781.70
  17362 763704.00
  17364 763627.95
  17366 763550.55
  17368 763472.70
  17370 763396.65
  17372 763319.10
  17374 763241.40
  17376 763164.00
  17378 763087.95
  17380 763010.55
  17382 762933.00
  17384 762855.30
  17386 762777.90
  17388 762702.15
  17390 762624.60
  17392 762547.20
  17394 762469.80
  17396 762392.25
  17398 762314.85
  17400 762237.45
  17402 762160.05
  17404 762082.80
  17406 762005.40
  17408 761928.15
  17410 761850.75
  17412 761773.50
  17414 761696.25
  17416 761618.85
  17418 761541.75
  17420 761464.50
  17422 761387.25
  17424 761310.15
  17426 761232.90
  17428 761155.80
  17430 761076.90
  17432 760999.80
  17434 760922.70
  17436 760845.45
  17438 760768.65
  17440 760689.75
  17442 760612.65
  17444 760535.55
  17446 760457.10
  17448 760380.00
  17450 760302.90
  17452 760224.45
  17454 760147.35
  17456 760070.55
  17458 759991.95
  17460 759915.15
  17462 759836.40
  17464 759759.45
  17466 759681.00
  17468 759604.20
  17470 759525.75
  17472 759448.95
  17474 759370.35
  17476 759293.70
  17478 759215.25
  17480 759138.60
  17482 759060.15
  17484 758983.35
  17486 758905.05
  17488 758826.60
  17490 758749.95
  17492 758671.65
  17494 758593.50
  17496 758516.70
  17498 758438.70
  17500 758288.85
  17502 758139.15
  17504 758062.65
  17506 757984.35
  17508 757906.35
  17510 757828.20
  17512 757750.05
  17514 757671.90
  17516 757595.40
  17518 757517.40
  17520 757439.25
  17522 757361.25
  17524 757283.10
  17526 757205.25
  17528 757127.25
  17530 757049.25
  17532 756971.40
  17534 756893.55
  17536 756815.55
  17538 756737.55
  17540 756659.70
  17542 756582.00
  17544 756504.00
  17546 756426.45
  17548 756348.45
  17550 756269.10
  17552 756191.25
  17554 756113.55
  17556 756035.85
  17558 755958.15
  17560 755878.80
  17562 755801.25
  17564 755723.70
  17566 755646.00
  17568 755566.80
  17570 755489.10
  17572 755411.55
  17574 755334.00
  17576 755254.80
  17578 755177.55
  17580 755098.20
  17582 755020.65
  17584 754943.40
  17586 754864.20
  17588 754786.95
  17590 754707.75
  17592 754630.65
  17594 754551.45
  17596 754474.20
  17598 754395.30
  17600 754317.90
  17602 754239.00
  17604 754161.60
  17606 754082.70
  17608 754005.60
  17610 753926.70
  17612 753847.95
  17614 753770.70
  17616 753691.95
  17618 753613.20
  17620 753535.95
  17622 753457.35
  17624 753378.45
  17626 753301.65
  17628 753222.90
  17630 753144.30
  17632 753065.55
  17634 752986.95
  17636 752910.00
  17638 752831.25
  17640 752752.80
  17642 752674.20
  17644 752595.90
  17646 752517.30
  17648 752438.70
  17650 752362.05
  17652 752283.45
  17654 752205.15
  17656 752126.70
  17658 752048.25
  17660 751969.95
  17662 751891.50
  17664 751813.20
  17666 751734.90
  17668 751656.75
  17670 751576.65
  17672 751498.35
  17674 751420.20
  17676 751341.90
  17678 751263.90
  17680 751185.60
  17682 751107.45
  17684 751029.15
  17686 750949.50
  17688 750871.35
  17690 750793.20
  17692 750715.20
  17694 750635.40
  17696 750557.55
  17698 750479.40
  17700 750401.25
  17702 750321.90
  17704 750243.90
  17706 750165.90
  17708 750086.25
  17710 750008.40
  17712 749928.90
  17714 749850.90
  17716 749773.20
  17718 749693.70
  17720 749615.85
  17722 749536.50
  17724 749458.65
  17726 749379.30
  17728 749301.30
  17730 749222.25
  17732 749144.40
  17734 749065.20
  17736 748985.70
  17738 748908.15
  17740 748828.95
  17742 748751.10
  17744 748672.20
  17746 748592.70
  17748 748515.30
  17750 748436.10
  17752 748356.75
  17754 748279.50
  17756 748200.30
  17758 748121.25
  17760 748042.05
  17762 747964.65
  17764 747885.60
  17766 747806.55
  17768 747727.65
  17770 747648.45
  17772 747569.55
  17774 747492.30
  17776 747413.40
  17778 747334.50
  17780 747255.45
  17782 747176.70
  17784 747097.65
  17786 747019.05
  17788 746940.15
  17790 746861.10
  17792 746782.50
  17794 746703.60
  17796 746625.00
  17798 746546.25
  17800 746467.65
  17802 746388.75
  17804 746310.00
  17806 746231.55
  17808 746152.80
  17810 746072.70
  17812 745993.95
  17814 745915.35
  17816 745836.90
  17818 745758.15
  17820 745679.70
  17822 745599.45
  17824 745521.00
  17826 745442.55
  17828 745364.10
  17830 745284.00
  17832 745205.55
  17834 745127.25
  17836 745047.15
  17838 744968.85
  17840 744890.40
  17842 744810.45
  17844 744732.15
  17846 744653.85
  17848 744573.90
  17850 744495.60
  17852 744415.80
  17854 744337.50
  17856 744257.70
  17858 744179.55
  17860 744099.75
  17862 744021.60
  17864 743941.80
  17866 743863.65
  17868 743784.15
  17870 743705.85
  17872 743626.20
  17874 743546.40
  17876 743468.55
  17878 743388.90
  17880 743310.90
  17882 743231.25
  17884 743151.60
  17886 743072.10
  17888 742994.10
  17890 742914.75
  17892 742835.10
  17894 742757.40
  17896 742677.75
  17898 742598.40
  17900 742518.90
  17902 742439.40
  17904 742361.70
  17906 742282.20
  17908 742202.85
  17910 742123.65
  17912 742044.15
  17914 741964.95
  17916 741885.60
  17918 741806.55
  17920 741727.05
  17922 741649.50
  17924 741570.15
  17926 741490.95
  17928 741411.90
  17930 741332.55
  17932 741253.65
  17934 741172.80
  17936 741093.45
  17938 741014.55
  17940 740935.35
  17942 740856.30
  17944 740777.10
  17946 740698.35
  17948 740619.30
  17950 740540.25
  17952 740459.70
  17954 740380.80
  17956 740301.90
  17958 740222.70
  17960 740144.10
  17962 740063.40
  17964 739984.50
  17966 739905.75
  17968 739826.85
  17970 739746.60
  17972 739667.70
  17974 739588.80
  17976 739508.55
  17978 739429.65
  17980 739351.05
  17982 739270.80
  17984 739192.05
  17986 739111.80
  17988 739032.90
  17990 738952.65
  17992 738874.05
  17994 738795.60
  17996 738715.35
  17998 738636.90
  18000 738556.50
  18002 738478.05
  18004 738397.95
  18006 738317.70
  18008 738239.25
  18010 738159.15
  18012 738080.85
  18014 738000.75
  18016 737920.65
  18018 737842.20
  18020 737762.10
  18022 737682.30
  18024 737603.85
  18026 737524.05
  18028 737444.10
  18030 737365.80
  18032 737286.00
  18034 737206.05
  18036 737126.25
  18038 737047.80
  18040 736968.15
  18042 736888.35
  18044 736808.55
  18046 736728.75
  18048 736648.95
  18050 736570.95
  18052 736491.15
  18054 736411.35
  18056 736331.70
  18058 736252.20
  18060 736172.55
  18062 736092.90
  18064 736013.40
  18066 735933.75
  18068 735853.95
  18070 735774.60
  18072 735694.95
  18074 735615.45
  18076 735535.80
  18078 735456.60
  18080 735376.95
  18082 735297.45
  18084 735218.25
  18086 735138.60
  18088 735057.75
  18090 734978.25
  18092 734899.05
  18094 734819.55
  18096 734740.20
  18098 734659.20
  18100 734580.00
  18102 734500.80
  18104 734421.45
  18106 734342.10
  18108 734261.40
  18110 734182.20
  18112 734103.00
  18114 734022.30
  18116 733943.10
  18118 733863.90
  18120 733783.05
  18122 733704.15
  18124 733624.80
  18126 733544.25
  18128 733465.20
  18130 733384.65
  18132 733305.45
  18134 733224.75
  18136 733145.85
  18138 733066.95
  18140 732986.40
  18142 732905.70
  18144 732826.95
  18146 732746.40
  18148 732667.35
  18150 732586.95
  18152 732508.20
  18154 732427.80
  18156 732348.75
  18158 732268.35
  18160 732188.10
  18162 732109.35
  18164 732029.10
  18166 731948.70
  18168 731869.95
  18170 731789.70
  18172 731709.30
  18174 731629.05
  18176 731550.30
  18178 731470.20
  18180 731389.95
  18182 731309.85
  18184 731231.10
  18186 731150.85
  18188 731070.75
  18190 730990.50
  18192 730910.55
  18194 730830.45
  18196 730752.15
  18198 730672.05
  18200 730591.80
  18202 730511.85
  18204 730431.75
  18206 730351.80
  18208 730271.85
  18210 730192.05
  18212 730111.95
  18214 730032.00
  18216 729952.20
  18218 729872.25
  18220 729792.30
  18222 729712.50
  18224 729632.55
  18226 729552.75
  18228 729472.95
  18230 729393.15
  18232 729311.70
  18234 729232.05
  18236 729152.25
  18238 729072.45
  18240 728992.80
  18242 728913.00
  18244 728831.85
  18246 728752.20
  18248 728672.70
  18250 728592.90
  18252 728513.10
  18254 728432.10
  18256 728352.45
  18258 728272.80
  18260 728191.80
  18262 728112.45
  18264 728032.65
  18266 727951.50
  18268 727872.15
  18270 727792.65
  18272 727711.80
  18274 727632.15
  18276 727551.30
  18278 727471.80
  18280 727392.30
  18282 727311.60
  18284 727232.10
  18286 727151.25
  18288 727071.90
  18290 726990.90
  18292 726911.70
  18294 726830.70
  18296 726750.15
  18298 726670.80
  18300 726589.95
  18302 726510.75
  18304 726430.05
  18306 726350.85
  18308 726270.00
  18310 726189.45
  18312 726110.25
  18314 726029.70
  18316 725948.85
  18318 725869.65
  18320 725789.10
  18322 725708.55
  18324 725628.00
  18326 725548.95
  18328 725468.40
  18330 725387.85
  18332 725307.15
  18334 725228.40
  18336 725147.70
  18338 725067.30
  18340 724986.75
  18342 724906.50
  18344 724825.95
  18346 724745.55
  18348 724666.65
  18350 724586.25
  18352 724506.00
  18354 724425.45
  18356 724345.20
  18358 724264.95
  18360 724184.55
  18362 724104.30
  18364 724023.90
  18366 723943.65
  18368 723863.40
  18370 723783.15
  18372 723703.05
  18374 723622.80
  18376 723542.70
  18378 723462.30
  18380 723382.35
  18382 723300.60
  18384 723220.35
  18386 723140.40
  18388 723060.15
  18390 722980.20
  18392 722900.10
  18394 722818.50
  18396 722738.40
  18398 722658.45
  18400 722578.50
  18402 722498.55
  18404 722417.10
  18406 722337.00
  18408 722257.20
  18410 722175.60
  18412 722095.80
  18414 722015.85
  18416 721934.40
  18418 721854.75
  18420 721774.80
  18422 721693.35
  18424 721613.70
  18426 721533.75
  18428 721452.60
  18430 721372.80
  18432 721291.50
  18434 721211.70
  18436 721130.40
  18438 721050.90
  18440 720969.45
  18442 720889.95
  18444 720808.65
  18446 720729.15
  18448 720647.85
  18450 720568.20
  18452 720487.05
  18454 720407.55
  18456 720326.70
  18458 720245.40
  18460 720165.90
  18462 720084.75
  18464 720005.40
  18466 719924.40
  18468 719843.10
  18470 719763.90
  18472 719682.90
  18474 719601.90
  18476 719520.90
  18478 719441.55
  18480 719360.70
  18482 719279.70
  18484 719198.85
  18486 719119.50
  18488 719038.50
  18490 718957.80
  18492 718877.10
  18494 718796.25
  18496 718716.90
  18498 718636.20
  18500 718498.35
  18502 718360.20
  18504 718279.50
  18506 718198.80
  18508 718118.25
  18510 718037.40
  18512 717956.85
  18514 717876.30
  18516 717795.45
  18518 717715.05
  18520 717634.50
  18522 717553.95
  18524 717473.25
  18526 717392.85
  18528 717312.30
  18530 717231.75
  18532 717151.35
  18534 717070.80
  18536 716990.55
  18538 716910.00
  18540 716829.60
  18542 716749.35
  18544 716667.30
  18546 716587.05
  18548 716506.65
  18550 716426.40
  18552 716346.15
  18554 716264.10
  18556 716184.00
  18558 716103.75
  18560 716023.65
  18562 715943.40
  18564 715861.80
  18566 715781.55
  18568 715701.30
  18570 715619.85
  18572 715539.60
  18574 715459.65
  18576 715377.90
  18578 715297.95
  18580 715217.70
  18582 715136.10
  18584 715056.30
  18586 714974.70
  18588 714894.90
  18590 714814.95
  18592 714733.50
  18594 714653.55
  18596 714571.95
  18598 714492.30
  18600 714410.85
  18602 714331.05
  18604 714249.45
  18606 714169.80
  18608 714088.50
  18610 714007.05
  18612 713927.40
  18614 713846.10
  18616 713766.60
  18618 713685.15
  18620 713605.50
  18622 713524.50
  18624 713443.05
  18626 713363.55
  18628 713282.55
  18630 713201.40
  18632 713121.60
  18634 713040.45
  18636 712959.60
  18638 712878.45
  18640 712799.10
  18642 712717.95
  18644 712637.10
  18646 712555.95
  18648 712476.45
  18650 712395.75
  18652 712314.60
  18654 712233.90
  18656 712152.90
  18658 712072.05
  18660 711992.70
  18662 711911.85
  18664 711831.15
  18666 711750.30
  18668 711669.60
  18670 711588.60
  18672 711507.90
  18674 711427.35
  18676 711346.50
  18678 711265.80
  18680 711185.10
  18682 711104.55
  18684 711023.85
  18686 710943.15
  18688 710862.60
  18690 710782.05
  18692 710701.50
  18694 710620.95
  18696 710540.40
  18698 710459.85
  18700 710379.30
  18702 710298.90
  18704 710216.85
  18706 710136.45
  18708 710056.05
  18710 709975.65
  18712 709895.25
  18714 709814.70
  18716 709732.95
  18718 709652.70
  18720 709572.15
  18722 709492.05
  18724 709410.15
  18726 709330.05
  18728 709249.65
  18730 709169.55
  18732 709087.65
  18734 709007.55
  18736 708927.15
  18738 708845.55
  18740 708765.45
  18742 708685.20
  18744 708603.75
  18746 708523.50
  18748 708442.05
  18750 708361.80
  18752 708281.85
  18754 708200.40
  18756 708120.15
  18758 708038.70
  18760 707958.90
  18762 707877.30
  18764 707797.35
  18766 707715.75
  18768 707636.10
  18770 707554.65
  18772 707474.85
  18774 707393.40
  18776 707313.60
  18778 707232.30
  18780 707150.85
  18782 707071.20
  18784 706989.75
  18786 706910.10
  18788 706828.80
  18790 706747.50
  18792 706667.85
  18794 706586.70
  18796 706505.55
  18798 706425.90
  18800 706344.75
  18802 706263.60
  18804 706182.30
  18806 706102.80
  18808 706021.80
  18810 705940.80
  18812 705859.65
  18814 705780.30
  18816 705699.15
  18818 705618.00
  18820 705537.15
  18822 705456.15
  18824 705375.30
  18826 705295.95
  18828 705214.95
  18830 705134.10
  18832 705053.25
  18834 704972.40
  18836 704891.40
  18838 704810.70
  18840 704729.85
  18842 704649.15
  18844 704568.30
  18846 704487.60
  18848 704406.75
  18850 704326.20
  18852 704245.50
  18854 704164.80
  18856 704084.10
  18858 704003.55
  18860 703922.85
  18862 703842.30
  18864 703761.60
  18866 703681.20
  18868 703600.50
  18870 703519.80
  18872 703439.55
  18874 703357.35
  18876 703276.95
  18878 703196.40
  18880 703116.00
  18882 703035.45
  18884 702955.05
  18886 702873.15
  18888 702792.75
  18890 702712.50
  18892 702632.10
  18894 702550.20
  18896 702469.80
  18898 702389.55
  18900 702309.30
  18902 702227.55
  18904 702147.30
  18906 702067.20
  18908 701985.15
  18910 701905.05
  18912 701824.95
  18914 701743.35
  18916 701663.10
  18918 701581.50
  18920 701501.25
  18922 701421.15
  18924 701339.70
  18926 701259.45
  18928 701178.00
  18930 701097.90
  18932 701016.30
  18934 700936.35
  18936 700854.90
  18938 700774.95
  18940 700693.35
  18942 700613.55
  18944 700532.10
  18946 700452.30
  18948 700370.85
  18950 700290.90
  18952 700209.60
  18954 700128.30
  18956 700048.50
  18958 699967.05
  18960 699887.55
  18962 699806.10
  18964 699724.80
  18966 699645.15
  18968 699563.85
  18970 699482.70
  18972 699403.05
  18974 699321.75
  18976 699240.75
  18978 699159.45
  18980 699079.95
  18982 698998.80
  18984 698917.65
  18986 698836.65
  18988 698755.50
  18990 698676.15
  18992 698595.00
  18994 698514.15
  18996 698433.15
  18998 698352.15
  19000 698271.15
  19002 698191.65
  19004 698110.80
  19006 698029.80
  19008 697949.10
  19010 697868.10
  19012 697787.40
  19014 697706.55
  19016 697625.55
  19018 697544.85
  19020 697464.00
  19022 697383.30
  19024 697302.60
  19026 697221.90
  19028 697141.20
  19030 697060.20
  19032 696979.65
  19034 696898.95
  19036 696818.40
  19038 696737.70
  19040 696657.15
  19042 696576.45
  19044 696495.90
  19046 696415.50
  19048 696333.30
  19050 696252.90
  19052 696172.35
  19054 696091.80
  19056 696011.40
  19058 695930.70
  19060 695848.80
  19062 695768.40
  19064 695688.00
  19066 695607.75
  19068 695527.20
  19070 695445.30
  19072 695365.05
  19074 695284.80
  19076 695202.75
  19078 695122.50
  19080 695042.25
  19082 694962.00
  19084 694880.25
  19086 694800.00
  19088 694719.90
  19090 694638.00
  19092 694557.90
  19094 694476.15
  19096 694396.05
  19098 694316.10
  19100 694234.20
  19102 694154.25
  19104 694072.50
  19106 693992.40
  19108 693910.95
  19110 693830.85
  19112 693749.40
  19114 693669.30
  19116 693588.00
  19118 693508.05
  19120 693426.45
  19122 693346.50
  19124 693265.20
  19126 693185.10
  19128 693103.80
  19130 693024.00
  19132 692942.70
  19134 692861.25
  19136 692781.45
  19138 692700.15
  19140 692618.70
  19142 692539.05
  19144 692457.75
  19146 692378.10
  19148 692296.80
  19150 692215.80
  19152 692134.35
  19154 692054.70
  19156 691973.55
  19158 691892.40
  19160 691812.90
  19162 691731.45
  19164 691650.60
  19166 691569.45
  19168 691488.45
  19170 691408.95
  19172 691327.80
  19174 691246.80
  19176 691165.80
  19178 691084.95
  19180 691003.80
  19182 690924.45
  19184 690843.45
  19186 690762.45
  19188 690681.75
  19190 690600.75
  19192 690520.05
  19194 690439.05
  19196 690358.35
  19198 690277.50
  19200 690196.65
  19202 690115.80
  19204 690034.95
  19206 689954.40
  19208 689873.55
  19210 689793.00
  19212 689712.15
  19214 689631.45
  19216 689550.90
  19218 689470.20
  19220 689389.50
  19222 689308.80
  19224 689228.10
  19226 689147.70
  19228 689067.15
  19230 688986.60
  19232 688904.55
  19234 688824.00
  19236 688743.45
  19238 688662.90
  19240 688582.50
  19242 688502.10
  19244 688420.20
  19246 688339.65
  19248 688259.25
  19250 688178.85
  19252 688096.80
  19254 688016.70
  19256 687936.30
  19258 687856.05
  19260 687774.00
  19262 687693.90
  19264 687613.65
  19266 687531.75
  19268 687451.65
  19270 687371.25
  19272 687289.50
  19274 687209.25
  19276 687129.30
  19278 687047.55
  19280 686967.30
  19282 686887.20
  19284 686805.60
  19286 686725.50
  19288 686643.90
  19290 686563.95
  19292 686482.35
  19294 686402.10
  19296 686320.80
  19298 686240.70
  19300 686159.25
  19302 686079.30
  19304 685997.70
  19306 685917.90
  19308 685836.30
  19310 685756.50
  19312 685675.05
  19314 685595.25
  19316 685513.80
  19318 685434.00
  19320 685352.55
  19322 685271.40
  19324 685191.60
  19326 685110.30
  19328 685029.00
  19330 684949.20
  19332 684868.05
  19334 684786.75
  19336 684706.95
  19338 684625.80
  19340 684544.65
  19342 684465.15
  19344 684384.00
  19346 684302.85
  19348 684221.70
  19350 684142.05
  19352 684061.05
  19354 683979.90
  19356 683898.90
  19358 683819.40
  19360 683738.25
  19362 683657.40
  19364 683576.40
  19366 683495.55
  19368 683414.55
  19370 683334.90
  19372 683254.20
  19374 683173.20
  19376 683092.35
  19378 683011.35
  19380 682930.65
  19382 682849.80
  19384 682768.95
  19386 682688.25
  19388 682607.25
  19390 682526.70
  19392 682445.85
  19394 682365.15
  19396 682284.30
  19398 682203.60
  19400 682123.05
  19402 682042.20
  19404 681961.50
  19406 681880.95
  19408 681800.40
  19410 681719.70
  19412 681639.15
  19414 681558.60
  19416 681477.90
  19418 681397.50
  19420 681316.80
  19422 681236.25
  19424 681154.20
  19426 681073.80
  19428 680993.40
  19430 680912.85
  19432 680832.45
  19434 680752.20
  19436 680670.15
  19438 680589.75
  19440 680509.35
  19442 680429.10
  19444 680347.20
  19446 680266.80
  19448 680186.55
  19450 680106.15
  19452 680024.55
  19454 679944.30
  19456 679863.90
  19458 679782.15
  19460 679702.05
  19462 679621.80
  19464 679540.05
  19466 679459.95
  19468 679379.70
  19470 679298.10
  19472 679218.00
  19474 679137.75
  19476 679056.30
  19478 678976.20
  19480 678894.75
  19482 678814.65
  19484 678733.20
  19486 678652.95
  19488 678573.00
  19490 678491.70
  19492 678411.45
  19494 678330.15
  19496 678250.20
  19498 678168.75
  19500 678042.90
  19502 677915.55
  19504 677834.10
  19506 677754.15
  19508 677673.00
  19510 677593.05
  19512 677511.75
  19514 677431.95
  19516 677350.65
  19518 677269.50
  19520 677189.70
  19522 677108.55
  19524 677027.40
  19526 676947.75
  19528 676866.45
  19530 676785.30
  19532 676705.80
  19534 676624.65
  19536 676543.65
  19538 676464.00
  19540 676383.00
  19542 676301.85
  19544 676220.85
  19546 676141.50
  19548 676060.50
  19550 675979.65
  19552 675898.65
  19554 675819.15
  19556 675738.30
  19558 675657.30
  19560 675576.45
  19562 675495.75
  19564 675414.90
  19566 675335.40
  19568 675254.70
  19570 675173.85
  19572 675093.15
  19574 675012.30
  19576 674931.60
  19578 674851.05
  19580 674770.35
  19582 674689.50
  19584 674608.95
  19586 674528.25
  19588 674449.20
  19590 674368.50
  19592 674287.95
  19594 674207.25
  19596 674126.70
  19598 674046.30
  19600 673965.60
  19602 673883.85
  19604 673803.30
  19606 673722.75
  19608 673642.50
  19610 673561.95
  19612 673481.70
  19614 673401.00
  19616 673320.90
  19618 673240.35
  19620 673159.95
  19622 673079.70
  19624 672997.80
  19626 672917.70
  19628 672837.30
  19630 672757.20
  19632 672676.80
  19634 672596.70
  19636 672514.95
  19638 672434.85
  19640 672354.60
  19642 672274.35
  19644 672194.40
  19646 672112.80
  19648 672032.55
  19650 671952.60
  19652 671871.00
  19654 671791.05
  19656 671710.80
  19658 671630.85
  19660 671549.55
  19662 671469.30
  19664 671389.65
  19666 671308.05
  19668 671228.25
  19670 671148.15
  19672 671066.70
  19674 670987.05
  19676 670905.60
  19678 670825.80
  19680 670746.00
  19682 670664.85
  19684 670584.90
  19686 670503.60
  19688 670423.80
  19690 670342.65
  19692 670263.00
  19694 670181.85
  19696 670102.20
  19698 670021.05
  19700 669941.25
  19702 669860.25
  19704 669780.45
  19706 669699.45
  19708 669619.80
  19710 669538.80
  19712 669459.30
  19714 669378.30
  19716 669298.80
  19718 669217.80
  19720 669136.80
  19722 669057.45
  19724 668976.45
  19726 668895.60
  19728 668816.10
  19730 668735.40
  19732 668654.55
  19734 668575.05
  19736 668494.35
  19738 668413.50
  19740 668334.15
  19742 668253.30
  19744 668172.75
  19746 668093.40
  19748 668012.70
  19750 667932.00
  19752 667851.15
  19754 667772.25
  19756 667691.40
  19758 667610.85
  19760 667530.15
  19762 667449.60
  19764 667370.55
  19766 667289.85
  19768 667209.45
  19770 667128.90
  19772 667048.35
  19774 666967.80
  19776 666889.05
  19778 666808.35
  19780 666727.95
  19782 666647.55
  19784 666567.15
  19786 666486.75
  19788 666406.35
  19790 666325.95
  19792 666245.70
  19794 666165.30
  19796 666085.20
  19798 666004.80
  19800 665924.55
  19802 665844.30
  19804 665763.90
  19806 665683.80
  19808 665603.55
  19810 665523.45
  19812 665443.05
  19814 665363.10
  19816 665282.85
  19818 665202.75
  19820 665122.80
  19822 665042.55
  19824 664962.60
  19826 664882.50
  19828 664802.55
  19830 664720.95
  19832 664640.85
  19834 664561.05
  19836 664480.95
  19838 664401.15
  19840 664321.20
  19842 664241.25
  19844 664159.80
  19846 664080.00
  19848 664000.05
  19850 663920.25
  19852 663838.95
  19854 663759.15
  19856 663679.20
  19858 663599.70
  19860 663518.10
  19862 663438.60
  19864 663358.65
  19866 663279.15
  19868 663198.00
  19870 663118.20
  19872 663038.70
  19874 662957.40
  19876 662877.75
  19878 662798.10
  19880 662717.25
  19882 662637.60
  19884 662557.80
  19886 662476.95
  19888 662397.30
  19890 662316.60
  19892 662236.80
  19894 662157.45
  19896 662076.60
  19898 661996.95
  19900 661916.25
  19902 661836.75
  19904 661755.90
  19906 661676.55
  19908 661595.55
  19910 661516.35
  19912 661435.50
  19914 661356.15
  19916 661275.30
  19918 661196.25
  19920 661115.40
  19922 661036.20
  19924 660955.65
  19926 660876.30
  19928 660795.60
  19930 660714.90
  19932 660635.70
  19934 660555.15
  19936 660475.95
  19938 660395.55
  19940 660314.85
  19942 660235.80
  19944 660155.25
  19946 660074.85
  19948 659995.65
  19950 659915.25
  19952 659834.85
  19954 659755.80
  19956 659675.40
  19958 659594.85
  19960 659516.10
  19962 659435.70
  19964 659355.30
  19966 659275.05
  19968 659196.00
  19970 659115.90
  19972 659035.35
  19974 658955.10
  19976 658875.00
  19978 658795.95
  19980 658715.85
  19982 658635.60
  19984 658555.50
  19986 658475.25
  19988 658395.00
  19990 658316.25
  19992 658236.30
  19994 658156.05
  19996 658075.95
  19998 657996.00
  20000 657915.90
  20002 657835.80
  20004 657755.70
  20006 657675.60
  20008 657595.80
  20010 657515.70
  20012 657437.25
  20014 657357.30
  20016 657277.35
  20018 657197.40
  20020 657117.45
  20022 657037.80
  20024 656957.85
  20026 656878.05
  20028 656798.10
  20030 656718.30
  20032 656637.00
  20034 656557.20
  20036 656477.55
  20038 656397.60
  20040 656317.80
  20042 656238.30
  20044 656158.50
  20046 656078.85
  20048 655999.20
  20050 655919.55
  20052 655839.75
  20054 655758.60
  20056 655679.10
  20058 655599.30
  20060 655520.10
  20062 655440.30
  20064 655360.95
  20066 655279.80
  20068 655200.30
  20070 655120.80
  20072 655041.30
  20074 654960.45
  20076 654880.95
  20078 654801.75
  20080 654722.10
  20082 654641.25
  20084 654561.90
  20086 654482.55
  20088 654403.20
  20090 654322.50
  20092 654243.30
  20094 654163.80
  20096 654082.95
  20098 654003.75
  20100 653924.55
  20102 653843.85
  20104 653764.65
  20106 653685.30
  20108 653604.75
  20110 653525.55
  20112 653445.00
  20114 653365.80
  20116 653286.75
  20118 653206.20
  20120 653127.00
  20122 653046.60
  20124 652967.55
  20126 652886.85
  20128 652807.95
  20130 652727.55
  20132 652648.50
  20134 652567.95
  20136 652489.05
  20138 652408.80
  20140 652329.75
  20142 652249.35
  20144 652170.45
  20146 652090.20
  20148 652011.15
  20150 651930.90
  20152 651852.15
  20154 651771.90
  20156 651691.50
  20158 651612.75
  20160 651532.50
  20162 651453.75
  20164 651373.65
  20166 651293.40
  20168 651214.80
  20170 651134.55
  20172 651054.30
  20174 650975.70
  20176 650895.60
  20178 650815.65
  20180 650736.90
  20182 650657.10
  20184 650577.00
  20186 650496.90
  20188 650418.45
  20190 650338.35
  20192 650258.55
  20194 650178.45
  20196 650100.00
  20198 650020.05
  20200 649940.10
  20202 649860.30
  20204 649781.85
  20206 649702.05
  20208 649622.10
  20210 649542.30
  20212 649462.65
  20214 649382.70
  20216 649304.40
  20218 649224.45
  20220 649144.95
  20222 649065.15
  20224 648985.35
  20226 648905.85
  20228 648826.05
  20230 648746.40
  20232 648666.60
  20234 648588.60
  20236 648508.95
  20238 648429.30
  20240 648349.80
  20242 648270.15
  20244 648190.65
  20246 648111.00
  20248 648031.65
  20250 647952.00
  20252 647872.50
  20254 647793.00
  20256 647713.65
  20258 647634.15
  20260 647554.65
  20262 647475.30
  20264 647395.95
  20266 647316.60
  20268 647237.10
  20270 647156.40
  20272 647077.20
  20274 646997.70
  20276 646918.50
  20278 646839.15
  20280 646759.80
  20282 646680.60
  20284 646601.40
  20286 646522.20
  20288 646441.50
  20290 646362.30
  20292 646283.10
  20294 646203.90
  20296 646124.85
  20298 646044.15
  20300 645965.25
  20302 645886.05
  20304 645806.85
  20306 645727.80
  20308 645647.40
  20310 645568.35
  20312 645489.30
  20314 645410.40
  20316 645329.70
  20318 645250.80
  20320 645172.05
  20322 645091.50
  20324 645012.75
  20326 644933.70
  20328 644853.45
  20330 644774.40
  20332 644695.50
  20334 644615.40
  20336 644536.50
  20338 644457.75
  20340 644377.35
  20342 644298.75
  20344 644219.85
  20346 644139.75
  20348 644061.00
  20350 643980.75
  20352 643902.00
  20354 643823.40
  20356 643743.30
  20358 643664.55
  20360 643584.45
  20362 643505.85
  20364 643425.75
  20366 643347.30
  20368 643267.20
  20370 643188.60
  20372 643108.65
  20374 643030.05
  20376 642950.10
  20378 642871.65
  20380 642791.70
  20382 642713.25
  20384 642633.15
  20386 642555.00
  20388 642474.90
  20390 642395.10
  20392 642316.65
  20394 642236.85
  20396 642158.40
  20398 642078.60
  20400 641998.95
  20402 641920.65
  20404 641840.85
  20406 641761.20
  20408 641682.75
  20410 641603.25
  20412 641523.45
  20414 641445.30
  20416 641365.65
  20418 641286.00
  20420 641207.70
  20422 641128.20
  20424 641048.55
  20426 640970.40
  20428 640890.90
  20430 640811.25
  20432 640731.90
  20434 640653.75
  20436 640574.10
  20438 640494.75
  20440 640415.25
  20442 640335.90
  20444 640257.75
  20446 640178.40
  20448 640098.90
  20450 640019.55
  20452 639940.20
  20454 639860.70
  20456 639783.00
  20458 639703.50
  20460 639624.30
  20462 639544.95
  20464 639465.60
  20466 639386.40
  20468 639307.05
  20470 639228.00
  20472 639150.00
  20474 639070.80
  20476 638991.60
  20478 638912.55
  20480 638833.35
  20482 638754.15
  20484 638675.10
  20486 638595.90
  20488 638516.70
  20490 638437.65
  20492 638358.60
  20494 638279.55
  20496 638200.65
  20498 638121.60
  20500 638005.35
  20502 637889.10
  20504 637810.20
  20506 637731.15
  20508 637652.40
  20510 637573.35
  20512 637494.45
  20514 637414.20
  20516 637335.30
  20518 637256.40
  20520 637177.65
  20522 637098.75
  20524 637019.85
  20526 636941.25
  20528 636862.35
  20530 636783.60
  20532 636703.35
  20534 636624.75
  20536 636546.00
  20538 636467.40
  20540 636388.50
  20542 636309.90
  20544 636229.80
  20546 636151.20
  20548 636072.75
  20550 635994.15
  20552 635914.05
  20554 635835.45
  20556 635757.00
  20558 635678.40
  20560 635598.60
  20562 635520.00
  20564 635441.70
  20566 635362.95
  20568 635283.15
  20570 635204.85
  20572 635126.40
  20574 635046.60
  20576 634968.15
  20578 634889.85
  20580 634810.05
  20582 634731.75
  20584 634653.45
  20586 634573.65
  20588 634495.50
  20590 634415.70
  20592 634337.55
  20594 634259.25
  20596 634179.60
  20598 634101.60
  20600 634021.80
  20602 633943.80
  20604 633865.65
  20606 633786.00
  20608 633707.85
  20610 633628.35
  20612 633550.35
  20614 633470.85
  20616 633392.85
  20618 633313.35
  20620 633235.35
  20622 633156.00
  20624 633078.00
  20626 632998.65
  20628 632920.65
  20630 632841.45
  20632 632763.45
  20634 632684.10
  20636 632604.75
  20638 632526.90
  20640 632447.70
  20642 632369.85
  20644 632290.80
  20646 632212.80
  20648 632133.60
  20650 632054.40
  20652 631976.70
  20654 631897.65
  20656 631818.45
  20658 631740.75
  20660 631661.70
  20662 631582.50
  20664 631504.80
  20666 631425.90
  20668 631346.85
  20670 631269.30
  20672 631190.25
  20674 631111.20
  20676 631033.65
  20678 630954.75
  20680 630875.85
  20682 630796.95
  20684 630719.40
  20686 630640.50
  20688 630561.75
  20690 630482.85
  20692 630405.45
  20694 630326.55
  20696 630247.80
  20698 630169.05
  20700 630090.30
  20702 630012.90
  20704 629934.15
  20706 629855.55
  20708 629776.80
  20710 629698.05
  20712 629619.45
  20714 629540.70
  20716 629463.45
  20718 629385.00
  20720 629306.40
  20722 629227.80
  20724 629149.20
  20726 629070.60
  20728 628992.00
  20730 628913.70
  20732 628834.95
  20734 628756.65
  20736 628678.20
  20738 628599.60
  20740 628522.65
  20742 628444.05
  20744 628365.75
  20746 628287.30
  20748 628209.00
  20750 628130.70
  20752 628052.25
  20754 627973.95
  20756 627894.15
  20758 627816.00
  20760 627737.70
  20762 627659.55
  20764 627581.25
  20766 627502.80
  20768 627424.80
  20770 627346.50
  20772 627268.35
  20774 627190.20
  20776 627112.05
  20778 627033.90
  20780 626955.75
  20782 626877.60
  20784 626798.10
  20786 626720.10
  20788 626642.10
  20790 626563.95
  20792 626485.95
  20794 626407.95
  20796 626328.60
  20798 626250.60
  20800 626172.75
  20802 626094.75
  20804 626016.75
  20806 625937.70
  20808 625859.70
  20810 625781.85
  20812 625703.85
  20814 625624.80
  20816 625546.80
  20818 625468.95
  20820 625391.25
  20822 625311.90
  20824 625234.35
  20826 625156.50
  20828 625078.80
  20830 624999.60
  20832 624921.90
  20834 624844.20
  20836 624765.30
  20838 624687.60
  20840 624610.05
  20842 624531.00
  20844 624453.30
  20846 624375.60
  20848 624296.85
  20850 624219.15
  20852 624140.25
  20854 624062.70
  20856 623985.15
  20858 623906.40
  20860 623828.85
  20862 623749.95
  20864 623672.55
  20866 623595.30
  20868 623516.40
  20870 623438.85
  20872 623360.10
  20874 623282.70
  20876 623204.10
  20878 623126.70
  20880 623048.10
  20882 622970.70
  20884 622891.95
  20886 622814.70
  20888 622736.10
  20890 622659.00
  20892 622580.10
  20894 622503.00
  20896 622424.40
  20898 622347.15
  20900 622268.70
  20902 622190.25
  20904 622113.00
  20906 622034.55
  20908 621957.30
  20910 621879.00
  20912 621800.55
  20914 621723.45
  20916 621645.00
  20918 621568.05
  20920 621489.60
  20922 621411.15
  20924 621334.20
  20926 621255.90
  20928 621177.60
  20930 621100.50
  20932 621022.35
  20934 620944.05
  20936 620867.10
  20938 620788.80
  20940 620710.65
  20942 620633.85
  20944 620555.55
  20946 620477.40
  20948 620399.25
  20950 620322.45
  20952 620244.30
  20954 620166.15
  20956 620088.15
  20958 620011.35
  20960 619933.50
  20962 619855.35
  20964 619777.20
  20966 619699.20
  20968 619622.55
  20970 619544.70
  20972 619466.55
  20974 619388.55
  20976 619310.70
  20978 619232.70
  20980 619156.20
  20982 619078.20
  20984 619000.50
  20986 618922.50
  20988 618844.65
  20990 618766.80
  20992 618688.95
  20994 618611.25
  20996 618533.40
  20998 618457.05
  21000 618379.20
  21002 618301.35
  21004 618223.65
  21006 618145.95
  21008 618068.40
  21010 617990.55
  21012 617912.85
  21014 617835.30
  21016 617757.45
  21018 617680.05
  21020 617602.35
  21022 617524.80
  21024 617447.25
  21026 617369.70
  21028 617292.00
  21030 617214.45
  21032 617137.05
  21034 617059.50
  21036 616982.10
  21038 616904.55
  21040 616827.00
  21042 616749.75
  21044 616670.70
  21046 616593.45
  21048 616516.05
  21050 616438.65
  21052 616361.25
  21054 616283.70
  21056 616206.60
  21058 616129.20
  21060 616051.95
  21062 615973.35
  21064 615896.10
  21066 615818.70
  21068 615741.45
  21070 615664.35
  21072 615587.10
  21074 615508.50
  21076 615431.25
  21078 615354.15
  21080 615277.05
  21082 615199.80
  21084 615121.35
  21086 615044.25
  21088 614967.30
  21090 614890.05
  21092 614811.75
  21094 614734.80
  21096 614657.70
  21098 614580.60
  21100 614502.30
  21102 614425.35
  21104 614348.25
  21106 614269.95
  21108 614193.00
  21110 614116.05
  21112 614037.90
  21114 613960.80
  21116 613884.15
  21118 613807.20
  21120 613728.90
  21122 613652.10
  21124 613573.95
  21126 613497.15
  21128 613420.35
  21130 613342.35
  21132 613265.40
  21134 613188.60
  21136 613110.75
  21138 613033.80
  21140 612955.80
  21142 612879.15
  21144 612801.15
  21146 612724.50
  21148 612647.85
  21150 612569.85
  21152 612493.20
  21154 612415.35
  21156 612338.70
  21158 612260.70
  21160 612184.20
  21162 612106.35
  21164 612029.85
  21166 611951.85
  21168 611875.50
  21170 611797.65
  21172 611721.15
  21174 611643.45
  21176 611566.95
  21178 611489.25
  21180 611411.40
  21182 611335.05
  21184 611257.35
  21186 611181.00
  21188 611103.30
  21190 611026.80
  21192 610949.40
  21194 610871.70
  21196 610795.35
  21198 610717.65
  21200 610640.10
  21202 610563.90
  21204 610486.20
  21206 610410.15
  21208 610332.45
  21210 610255.05
  21212 610178.85
  21214 610101.30
  21216 610023.90
  21218 609947.70
  21220 609870.30
  21222 609792.90
  21224 609715.35
  21226 609639.30
  21228 609561.90
  21230 609484.65
  21232 609408.45
  21234 609331.20
  21236 609253.95
  21238 609176.40
  21240 609100.50
  21242 609023.40
  21244 608946.00
  21246 608868.75
  21248 608791.50
  21250 608715.60
  21252 608638.35
  21254 608561.10
  21256 608484.00
  21258 608406.90
  21260 608331.00
  21262 608254.05
  21264 608176.80
  21266 608099.55
  21268 608022.60
  21270 607945.50
  21272 607868.40
  21274 607792.80
  21276 607715.70
  21278 607638.60
  21280 607561.65
  21282 607484.70
  21284 607407.45
  21286 607330.80
  21288 607253.70
  21290 607176.75
  21292 607099.80
  21294 607023.00
  21296 606946.05
  21298 606869.25
  21300 606792.30
  21302 606716.85
  21304 606639.90
  21306 606563.10
  21308 606486.30
  21310 606409.65
  21312 606332.70
  21314 606256.05
  21316 606179.25
  21318 606102.45
  21320 606024.45
  21322 605947.80
  21324 605871.15
  21326 605794.50
  21328 605717.85
  21330 605641.20
  21332 605564.40
  21334 605487.90
  21336 605411.25
  21338 605334.75
  21340 605258.10
  21342 605181.60
  21344 605104.95
  21346 605027.10
  21348 604950.75
  21350 604874.10
  21352 604797.75
  21354 604721.10
  21356 604644.75
  21358 604568.40
  21360 604490.55
  21362 604414.20
  21364 604337.70
  21366 604261.35
  21368 604184.85
  21370 604107.30
  21372 604030.95
  21374 603954.60
  21376 603878.40
  21378 603802.05
  21380 603724.50
  21382 603648.15
  21384 603571.80
  21386 603495.75
  21388 603418.20
  21390 603341.85
  21392 603265.65
  21394 603189.60
  21396 603112.05
  21398 603035.85
  21400 602959.65
  21402 602882.25
  21404 602806.20
  21406 602730.00
  21408 602652.60
  21410 602576.70
  21412 602500.50
  21414 602423.10
  21416 602347.20
  21418 602271.30
  21420 602193.75
  21422 602117.70
  21424 602041.80
  21426 601964.55
  21428 601888.80
  21430 601812.75
  21432 601735.50
  21434 601659.60
  21436 601582.35
  21438 601506.60
  21440 601429.35
  21442 601353.60
  21444 601277.55
  21446 601200.60
  21448 601124.70
  21450 601047.60
  21452 600971.85
  21454 600894.75
  21456 600819.00
  21458 600742.05
  21460 600666.30
  21462 600589.20
  21464 600513.60
  21466 600436.65
  21468 600361.05
  21470 600283.95
  21472 600208.35
  21474 600131.40
  21476 600055.80
  21478 599979.00
  21480 599903.40
  21482 599826.45
  21484 599749.65
  21486 599674.05
  21488 599597.25
  21490 599521.80
  21492 599444.85
  21494 599368.05
  21496 599292.60
  21498 599215.95
  21500 599110.05
  21502 599003.10
  21504 598926.30
  21506 598851.00
  21508 598774.35
  21510 598697.70
  21512 598622.40
  21514 598545.60
  21516 598468.95
  21518 598393.80
  21520 598317.15
  21522 598240.65
  21524 598165.35
  21526 598088.85
  21528 598012.35
  21530 597935.85
  21532 597860.55
  21534 597784.20
  21536 597707.70
  21538 597632.55
  21540 597556.05
  21542 597479.70
  21544 597403.20
  21546 597328.20
  21548 597251.70
  21550 597175.50
  21552 597099.15
  21554 597022.65
  21556 596947.80
  21558 596871.45
  21560 596795.10
  21562 596718.90
  21564 596642.70
  21566 596566.50
  21568 596491.50
  21570 596415.30
  21572 596339.10
  21574 596262.90
  21576 596186.85
  21578 596110.65
  21580 596034.45
  21582 595959.75
  21584 595883.70
  21586 595807.65
  21588 595731.45
  21590 595655.40
  21592 595579.50
  21594 595503.30
  21596 595427.25
  21598 595351.50
  21600 595275.30
  21602 595199.55
  21604 595123.50
  21606 595048.80
  21608 594973.05
  21610 594897.15
  21612 594821.25
  21614 594745.35
  21616 594669.45
  21618 594593.70
  21620 594517.80
  21622 594442.05
  21624 594366.15
  21626 594290.55
  21628 594214.65
  21630 594138.90
  21632 594061.95
  21634 593986.20
  21636 593910.60
  21638 593834.85
  21640 593759.10
  21642 593683.50
  21644 593607.90
  21646 593532.30
  21648 593456.55
  21650 593381.10
  21652 593305.50
  21654 593229.90
  21656 593154.30
  21658 593077.50
  21660 593002.20
  21662 592926.60
  21664 592851.15
  21666 592775.55
  21668 592700.10
  21670 592624.65
  21672 592547.85
  21674 592472.55
  21676 592397.10
  21678 592321.80
  21680 592246.35
  21682 592171.05
  21684 592094.40
  21686 592019.10
  21688 591943.80
  21690 591868.50
  21692 591792.00
  21694 591716.70
  21696 591641.40
  21698 591566.25
  21700 591489.60
  21702 591414.45
  21704 591339.30
  21706 591264.15
  21708 591187.65
  21710 591112.50
  21712 591037.35
  21714 590962.20
  21716 590885.85
  21718 590810.70
  21720 590735.85
  21722 590659.50
  21724 590584.35
  21726 590509.35
  21728 590433.00
  21730 590358.00
  21732 590283.00
  21734 590206.80
  21736 590131.80
  21738 590056.80
  21740 589980.90
  21742 589905.75
  21744 589829.70
  21746 589754.85
  21748 589680.00
  21750 589603.80
  21752 589528.95
  21754 589452.90
  21756 589378.05
  21758 589303.20
  21760 589227.15
  21762 589152.60
  21764 589076.55
  21766 589001.70
  21768 588925.80
  21770 588851.10
  21772 588775.20
  21774 588700.35
  21776 588624.60
  21778 588549.90
  21780 588475.20
  21782 588399.30
  21784 588324.75
  21786 588249.00
  21788 588172.95
  21790 588098.40
  21792 588022.65
  21794 587948.10
  21796 587872.50
  21798 587797.80
  21800 587722.20
  21802 587647.65
  21804 587571.90
  21806 587497.50
  21808 587421.75
  21810 587346.15
  21812 587271.75
  21814 587196.15
  21816 587121.75
  21818 587046.15
  21820 586970.55
  21822 586896.15
  21824 586820.55
  21826 586746.30
  21828 586670.70
  21830 586595.25
  21832 586521.00
  21834 586445.55
  21836 586369.95
  21838 586295.85
  21840 586220.40
  21842 586144.95
  21844 586070.70
  21846 585995.25
  21848 585919.95
  21850 585844.50
  21852 585770.55
  21854 585695.10
  21856 585619.65
  21858 585545.70
  21860 585470.40
  21862 585395.10
  21864 585319.80
  21866 585245.85
  21868 585170.55
  21870 585095.25
  21872 585020.10
  21874 584946.15
  21876 584871.00
  21878 584795.70
  21880 584720.55
  21882 584645.40
  21884 584571.60
  21886 584496.45
  21888 584421.30
  21890 584346.30
  21892 584271.30
  21894 584197.50
  21896 584122.35
  21898 584047.35
  21900 583972.20
  21902 583897.20
  21904 583822.20
  21906 583747.20
  21908 583673.70
  21910 583598.70
  21912 583523.70
  21914 583448.85
  21916 583373.85
  21918 583299.15
  21920 583224.15
  21922 583149.15
  21924 583074.30
  21926 582999.60
  21928 582926.10
  21930 582851.25
  21932 582776.55
  21934 582701.70
  21936 582626.85
  21938 582552.15
  21940 582477.45
  21942 582402.75
  21944 582328.05
  21946 582253.35
  21948 582178.65
  21950 582103.95
  21952 582029.40
  21954 581954.70
  21956 581880.15
  21958 581805.45
  21960 581730.90
  21962 581656.35
  21964 581581.80
  21966 581507.40
  21968 581432.70
  21970 581358.15
  21972 581283.75
  21974 581207.85
  21976 581133.45
  21978 581059.05
  21980 580984.50
  21982 580910.10
  21984 580835.70
  21986 580761.30
  21988 580686.90
  21990 580612.65
  21992 580538.10
  21994 580463.85
  21996 580388.25
  21998 580314.00
  22000 580239.60
  22002 580165.20
  22004 580091.10
  22006 580016.85
  22008 579942.60
  22010 579867.15
  22012 579792.90
  22014 579718.65
  22016 579644.40
  22018 579570.30
  22020 579494.85
  22022 579420.75
  22024 579346.65
  22026 579272.55
  22028 579198.30
  22030 579123.00
  22032 579049.05
  22034 578974.80
  22036 578901.00
  22038 578825.55
  22040 578751.60
  22042 578677.65
  22044 578603.55
  22046 578528.40
  22048 578454.30
  22050 578380.50
  22052 578305.35
  22054 578231.40
  22056 578157.45
  22058 578083.65
  22060 578008.50
  22062 577934.55
  22064 577860.75
  22066 577785.60
  22068 577711.80
  22070 577638.00
  22072 577562.85
  22074 577489.20
  22076 577415.40
  22078 577340.40
  22080 577266.60
  22082 577191.60
  22084 577117.95
  22086 577044.30
  22088 576969.30
  22090 576895.65
  22092 576822.15
  22094 576747.15
  22096 576673.50
  22098 576598.65
  22100 576525.15
  22102 576450.30
  22104 576376.65
  22106 576303.15
  22108 576228.30
  22110 576154.80
  22112 576080.10
  22114 576006.45
  22116 575931.75
  22118 575858.40
  22120 575783.70
  22122 575710.20
  22124 575635.50
  22126 575562.15
  22128 575487.45
  22130 575413.95
  22132 575339.40
  22134 575266.05
  22136 575191.50
  22138 575118.15
  22140 575043.60
  22142 574970.25
  22144 574895.85
  22146 574822.50
  22148 574747.95
  22150 574673.40
  22152 574600.20
  22154 574525.80
  22156 574452.60
  22158 574378.05
  22160 574304.85
  22162 574230.45
  22164 574156.20
  22166 574083.00
  22168 574008.60
  22170 573935.55
  22172 573861.15
  22174 573786.90
  22176 573713.70
  22178 573639.45
  22180 573565.20
  22182 573492.15
  22184 573417.90
  22186 573343.65
  22188 573270.60
  22190 573196.50
  22192 573122.25
  22194 573049.20
  22196 572975.25
  22198 572901.00
  22200 572827.95
  22202 572754.00
  22204 572679.75
  22206 572605.80
  22208 572532.90
  22210 572458.80
  22212 572384.70
  22214 572311.80
  22216 572237.85
  22218 572163.75
  22220 572089.80
  22222 572017.05
  22224 571943.10
  22226 571869.15
  22228 571795.20
  22230 571721.25
  22232 571648.50
  22234 571574.70
  22236 571500.75
  22238 571426.80
  22240 571353.00
  22242 571280.40
  22244 571206.45
  22246 571132.65
  22248 571059.00
  22250 570984.90
  22252 570911.25
  22254 570838.80
  22256 570764.85
  22258 570691.20
  22260 570617.55
  22262 570543.75
  22264 570470.10
  22266 570396.30
  22268 570324.00
  22270 570250.20
  22272 570176.70
  22274 570102.90
  22276 570029.40
  22278 569955.90
  22280 569882.10
  22282 569808.60
  22284 569734.95
  22286 569661.30
  22288 569587.80
  22290 569514.30
  22292 569440.80
  22294 569367.30
  22296 569295.15
  22298 569221.65
  22300 569148.30
  22302 569074.80
  22304 569001.30
  22306 568927.80
  22308 568854.45
  22310 568781.10
  22312 568707.60
  22314 568634.40
  22316 568561.05
  22318 568487.55
  22320 568414.35
  22322 568341.00
  22324 568266.45
  22326 568193.10
  22328 568119.90
  22330 568046.70
  22332 567973.35
  22334 567900.15
  22336 567826.95
  22338 567753.75
  22340 567680.55
  22342 567607.35
  22344 567534.30
  22346 567460.95
  22348 567387.90
  22350 567314.70
  22352 567240.45
  22354 567167.40
  22356 567094.20
  22358 567021.30
  22360 566948.10
  22362 566875.20
  22364 566802.15
  22366 566729.10
  22368 566654.70
  22370 566581.80
  22372 566508.90
  22374 566435.85
  22376 566362.95
  22378 566288.70
  22380 566215.95
  22382 566143.05
  22384 566070.00
  22386 565997.10
  22388 565924.35
  22390 565850.25
  22392 565777.35
  22394 565704.60
  22396 565631.70
  22398 565557.60
  22400 565485.00
  22402 565412.25
  22404 565339.35
  22406 565265.55
  22408 565192.65
  22410 565119.90
  22412 565047.30
  22414 564973.35
  22416 564900.60
  22418 564828.00
  22420 564754.05
  22422 564681.30
  22424 564608.85
  22426 564536.10
  22428 564462.30
  22430 564389.70
  22432 564317.25
  22434 564243.30
  22436 564170.85
  22438 564098.25
  22440 564024.60
  22442 563952.15
  22444 563879.55
  22446 563805.90
  22448 563733.45
  22450 563660.85
  22452 563587.35
  22454 563514.75
  22456 563441.25
  22458 563368.80
  22460 563296.50
  22462 563222.70
  22464 563150.55
  22466 563077.05
  22468 563004.45
  22470 562932.30
  22472 562858.65
  22474 562786.35
  22476 562712.85
  22478 562640.55
  22480 562567.05
  22482 562494.75
  22484 562421.55
  22486 562349.10
  22488 562275.75
  22490 562203.60
  22492 562131.30
  22494 562058.10
  22496 561985.80
  22498 561912.60
  22500 561815.40
  22502 561717.30
  22504 561645.30
  22506 561571.80
  22508 561499.80
  22510 561426.45
  22512 561354.60
  22514 561281.25
  22516 561207.90
  22518 561136.05
  22520 561062.85
  22522 560990.85
  22524 560917.65
  22526 560845.80
  22528 560772.60
  22530 560700.60
  22532 560627.70
  22534 560554.50
  22536 560482.65
  22538 560409.45
  22540 560337.75
  22542 560264.55
  22544 560191.50
  22546 560119.80
  22548 560046.75
  22550 559973.85
  22552 559902.00
  22554 559829.10
  22556 559757.40
  22558 559684.35
  22560 559611.45
  22562 559539.75
  22564 559467.00
  22566 559394.10
  22568 559322.40
  22570 559249.50
  22572 559176.75
  22574 559105.20
  22576 559032.30
  22578 558959.55
  22580 558888.00
  22582 558815.25
  22584 558742.50
  22586 558669.75
  22588 558598.35
  22590 558525.45
  22592 558452.85
  22594 558380.10
  22596 558308.70
  22598 558236.10
  22600 558163.35
  22602 558090.90
  22604 558019.35
  22606 557946.90
  22608 557874.30
  22610 557801.70
  22612 557730.45
  22614 557657.85
  22616 557585.40
  22618 557512.80
  22620 557440.20
  22622 557369.10
  22624 557296.65
  22626 557224.20
  22628 557151.75
  22630 557079.30
  22632 557006.85
  22634 556935.60
  22636 556863.30
  22638 556790.85
  22640 556718.70
  22642 556646.40
  22644 556574.10
  22646 556501.65
  22648 556430.55
  22650 556358.40
  22652 556286.10
  22654 556213.80
  22656 556141.50
  22658 556069.20
  22660 555997.20
  22662 555924.90
  22664 555853.95
  22666 555781.80
  22668 555709.65
  22670 555637.50
  22672 555565.20
  22674 555493.20
  22676 555421.20
  22678 555349.05
  22680 555277.05
  22682 555204.90
  22684 555132.90
  22686 555060.75
  22688 554988.75
  22690 554916.75
  22692 554844.90
  22694 554772.90
  22696 554700.90
  22698 554628.90
  22700 554557.05
  22702 554485.05
  22704 554413.20
  22706 554341.35
  22708 554269.50
  22710 554197.65
  22712 554125.65
  22714 554053.80
  22716 553982.10
  22718 553910.25
  22720 553838.55
  22722 553766.70
  22724 553694.85
  22726 553623.30
  22728 553551.30
  22730 553479.75
  22732 553407.90
  22734 553335.15
  22736 553263.45
  22738 553191.75
  22740 553120.20
  22742 553048.50
  22744 552976.80
  22746 552905.25
  22748 552833.70
  22750 552762.00
  22752 552690.30
  22754 552617.70
  22756 552546.15
  22758 552474.75
  22760 552403.05
  22762 552331.65
  22764 552260.10
  22766 552188.70
  22768 552115.95
  22770 552044.55
  22772 551973.15
  22774 551901.75
  22776 551830.35
  22778 551757.75
  22780 551686.35
  22782 551614.95
  22784 551543.70
  22786 551472.30
  22788 551399.70
  22790 551328.30
  22792 551257.20
  22794 551185.80
  22796 551113.35
  22798 551042.10
  22800 550971.00
  22802 550899.60
  22804 550828.50
  22806 550756.05
  22808 550684.80
  22810 550613.70
  22812 550541.40
  22814 550470.15
  22816 550399.05
  22818 550327.95
  22820 550255.65
  22822 550184.55
  22824 550113.60
  22826 550041.15
  22828 549970.20
  22830 549899.10
  22832 549826.95
  22834 549756.00
  22836 549684.90
  22838 549612.75
  22840 549541.80
  22842 549470.85
  22844 549398.55
  22846 549327.75
  22848 549256.80
  22850 549184.65
  22852 549113.85
  22854 549042.90
  22856 548970.75
  22858 548900.10
  22860 548827.95
  22862 548757.30
  22864 548686.35
  22866 548614.50
  22868 548543.70
  22870 548472.75
  22872 548400.90
  22874 548330.10
  22876 548258.25
  22878 548187.45
  22880 548115.60
  22882 548044.95
  22884 547972.95
  22886 547902.45
  22888 547831.80
  22890 547759.95
  22892 547689.30
  22894 547617.60
  22896 547546.95
  22898 547475.25
  22900 547404.75
  22902 547332.75
  22904 547262.40
  22906 547190.70
  22908 547120.05
  22910 547048.50
  22912 546977.85
  22914 546906.30
  22916 546835.80
  22918 546764.25
  22920 546693.90
  22922 546622.20
  22924 546551.70
  22926 546480.15
  22928 546409.80
  22930 546338.25
  22932 546266.70
  22934 546196.20
  22936 546124.80
  22938 546054.45
  22940 545982.90
  22942 545912.70
  22944 545841.30
  22946 545769.90
  22948 545699.55
  22950 545628.15
  22952 545557.95
  22954 545486.55
  22956 545415.30
  22958 545344.95
  22960 545273.70
  22962 545203.65
  22964 545132.10
  22966 545061.00
  22968 544990.80
  22970 544919.55
  22972 544848.15
  22974 544778.10
  22976 544706.85
  22978 544635.60
  22980 544565.70
  22982 544494.45
  22984 544423.35
  22986 544353.30
  22988 544282.05
  22990 544210.80
  22992 544140.90
  22994 544069.80
  22996 543998.70
  22998 543928.95
  23000 543857.70
  23002 543786.60
  23004 543715.65
  23006 543645.75
  23008 543574.80
  23010 543503.70
  23012 543432.75
  23014 543363.00
  23016 543291.90
  23018 543220.95
  23020 543150.00
  23022 543080.25
  23024 543009.30
  23026 542938.50
  23028 542867.55
  23030 542797.80
  23032 542727.00
  23034 542656.05
  23036 542585.25
  23038 542514.30
  23040 542444.70
  23042 542373.90
  23044 542303.25
  23046 542232.30
  23048 542161.65
  23050 542092.05
  23052 542021.40
  23054 541950.60
  23056 541879.80
  23058 541809.15
  23060 541738.50
  23062 541667.85
  23064 541598.25
  23066 541527.60
  23068 541456.95
  23070 541386.30
  23072 541315.80
  23074 541245.30
  23076 541174.65
  23078 541104.15
  23080 541034.70
  23082 540964.05
  23084 540893.70
  23086 540823.05
  23088 540752.70
  23090 540682.05
  23092 540611.70
  23094 540541.20
  23096 540470.70
  23098 540400.20
  23100 540329.85
  23102 540259.35
  23104 540189.00
  23106 540118.65
  23108 540049.50
  23110 539979.00
  23112 539908.80
  23114 539838.30
  23116 539768.10
  23118 539697.75
  23120 539627.40
  23122 539557.20
  23124 539487.00
  23126 539416.80
  23128 539346.45
  23130 539276.25
  23132 539206.05
  23134 539135.70
  23136 539065.65
  23138 538995.30
  23140 538925.25
  23142 538855.05
  23144 538785.00
  23146 538713.60
  23148 538643.55
  23150 538573.50
  23152 538503.30
  23154 538433.40
  23156 538363.20
  23158 538293.15
  23160 538223.10
  23162 538153.05
  23164 538083.15
  23166 538013.10
  23168 537943.20
  23170 537873.15
  23172 537803.10
  23174 537732.15
  23176 537662.10
  23178 537592.20
  23180 537522.30
  23182 537452.55
  23184 537382.65
  23186 537312.60
  23188 537242.85
  23190 537171.75
  23192 537102.00
  23194 537032.10
  23196 536962.35
  23198 536892.60
  23200 536822.70
  23202 536753.10
  23204 536682.15
  23206 536612.40
  23208 536542.65
  23210 536473.05
  23212 536403.30
  23214 536332.35
  23216 536262.60
  23218 536193.00
  23220 536123.40
  23222 536053.80
  23224 535982.85
  23226 535913.25
  23228 535843.65
  23230 535774.20
  23232 535703.40
  23234 535633.95
  23236 535564.35
  23238 535494.75
  23240 535425.30
  23242 535354.50
  23244 535285.20
  23246 535215.75
  23248 535144.95
  23250 535075.50
  23252 535006.05
  23254 534936.60
  23256 534865.95
  23258 534796.80
  23260 534727.20
  23262 534656.70
  23264 534587.40
  23266 534517.95
  23268 534448.80
  23270 534378.15
  23272 534308.85
  23274 534239.40
  23276 534169.05
  23278 534099.75
  23280 534030.45
  23282 533960.10
  23284 533890.80
  23286 533821.65
  23288 533751.30
  23290 533682.00
  23292 533611.80
  23294 533542.50
  23296 533473.35
  23298 533403.00
  23300 533334.00
  23302 533264.70
  23304 533194.50
  23306 533125.35
  23308 533055.15
  23310 532986.00
  23312 532917.00
  23314 532846.80
  23316 532777.65
  23318 532707.45
  23320 532638.45
  23322 532569.45
  23324 532499.40
  23326 532430.40
  23328 532360.20
  23330 532291.35
  23332 532221.15
  23334 532152.30
  23336 532082.25
  23338 532013.25
  23340 531943.20
  23342 531874.35
  23344 531805.50
  23346 531735.45
  23348 531666.60
  23350 531596.70
  23352 531528.00
  23354 531457.95
  23356 531389.10
  23358 531319.20
  23360 531250.35
  23362 531180.45
  23364 531111.75
  23366 531041.85
  23368 530973.15
  23370 530903.25
  23372 530833.50
  23374 530764.65
  23376 530694.90
  23378 530626.20
  23380 530556.45
  23382 530487.90
  23384 530418.00
  23386 530349.60
  23388 530279.70
  23390 530210.10
  23392 530141.40
  23394 530071.80
  23396 530003.25
  23398 529933.35
  23400 529864.95
  23402 529795.20
  23404 529725.75
  23406 529657.20
  23408 529587.45
  23410 529519.20
  23412 529449.45
  23414 529380.00
  23416 529311.45
  23418 529242.00
  23420 529172.40
  23422 529104.00
  23424 529034.55
  23426 528964.95
  23428 528896.70
  23430 528827.10
  23432 528758.85
  23434 528689.40
  23436 528619.80
  23438 528551.70
  23440 528482.25
  23442 528412.80
  23444 528344.70
  23446 528275.25
  23448 528205.80
  23450 528136.35
  23452 528068.25
  23454 527998.80
  23456 527929.65
  23458 527861.40
  23460 527792.10
  23462 527722.80
  23464 527653.50
  23466 527585.55
  23468 527516.10
  23470 527446.95
  23472 527377.80
  23474 527309.70
  23476 527240.55
  23478 527171.25
  23480 527102.10
  23482 527034.15
  23484 526965.00
  23486 526895.85
  23488 526826.70
  23490 526758.75
  23492 526689.60
  23494 526620.60
  23496 526551.45
  23498 526482.30
  23500 526394.10
  23502 526304.70
  23504 526235.70
  23506 526166.70
  23508 526097.70
  23510 526029.90
  23512 525961.05
  23514 525891.90
  23516 525823.05
  23518 525754.05
  23520 525685.20
  23522 525617.55
  23524 525548.55
  23526 525479.70
  23528 525410.85
  23530 525341.85
  23532 525273.00
  23534 525204.15
  23536 525136.65
  23538 525067.80
  23540 524998.95
  23542 524930.25
  23544 524861.40
  23546 524792.85
  23548 524724.00
  23550 524655.30
  23552 524586.45
  23554 524519.10
  23556 524450.25
  23558 524381.70
  23560 524313.15
  23562 524244.45
  23564 524175.60
  23566 524107.20
  23568 524038.50
  23570 523969.95
  23572 523901.40
  23574 523832.85
  23576 523764.30
  23578 523695.75
  23580 523627.20
  23582 523558.65
  23584 523490.25
  23586 523421.70
  23588 523353.15
  23590 523284.75
  23592 523217.55
  23594 523149.00
  23596 523079.40
  23598 523011.00
  23600 522942.60
  23602 522875.40
  23604 522805.95
  23606 522737.55
  23608 522669.30
  23610 522600.90
  23612 522532.65
  23614 522464.40
  23616 522396.00
  23618 522327.75
  23620 522259.50
  23622 522191.25
  23624 522123.00
  23626 522054.75
  23628 521986.65
  23630 521918.40
  23632 521850.15
  23634 521782.05
  23636 521713.95
  23638 521645.70
  23640 521577.60
  23642 521509.50
  23644 521440.20
  23646 521372.10
  23648 521304.00
  23650 521235.90
  23652 521167.80
  23654 521099.85
  23656 521031.75
  23658 520963.80
  23660 520895.85
  23662 520826.70
  23664 520758.75
  23666 520690.65
  23668 520622.70
  23670 520554.90
  23672 520486.80
  23674 520419.00
  23676 520350.00
  23678 520282.05
  23680 520214.25
  23682 520146.30
  23684 520078.50
  23686 520010.70
  23688 519941.70
  23690 519873.90
  23692 519805.95
  23694 519738.30
  23696 519670.50
  23698 519601.65
  23700 519533.85
  23702 519466.20
  23704 519398.40
  23706 519330.60
  23708 519261.90
  23710 519194.25
  23712 519126.45
  23714 519058.80
  23716 518990.10
  23718 518922.45
  23720 518854.95
  23722 518787.30
  23724 518719.65
  23726 518650.80
  23728 518583.30
  23730 518515.80
  23732 518447.10
  23734 518379.60
  23736 518311.95
  23738 518244.60
  23740 518175.90
  23742 518108.40
  23744 518041.05
  23746 517973.55
  23748 517905.00
  23750 517837.50
  23752 517770.15
  23754 517701.60
  23756 517634.25
  23758 517566.90
  23760 517498.35
  23762 517431.00
  23764 517363.65
  23766 517295.10
  23768 517227.90
  23770 517160.55
  23772 517092.15
  23774 517024.80
  23776 516957.75
  23778 516889.35
  23780 516822.00
  23782 516754.80
  23784 516686.40
  23786 516619.20
  23788 516552.00
  23790 516483.60
  23792 516416.55
  23794 516348.30
  23796 516281.10
  23798 516213.90
  23800 516145.80
  23802 516078.60
  23804 516010.50
  23806 515943.30
  23808 515876.40
  23810 515808.15
  23812 515741.10
  23814 515673.00
  23816 515606.10
  23818 515537.70
  23820 515470.80
  23822 515403.75
  23824 515335.80
  23826 515268.90
  23828 515200.80
  23830 515133.90
  23832 515065.80
  23834 514999.05
  23836 514930.95
  23838 514864.05
  23840 514797.30
  23842 514729.35
  23844 514662.45
  23846 514594.35
  23848 514527.60
  23850 514459.65
  23852 514393.05
  23854 514324.95
  23856 514258.20
  23858 514190.40
  23860 514123.50
  23862 514055.85
  23864 513989.10
  23866 513921.30
  23868 513853.50
  23870 513786.75
  23872 513718.95
  23874 513652.35
  23876 513584.55
  23878 513517.95
  23880 513450.30
  23882 513383.70
  23884 513315.90
  23886 513249.45
  23888 513181.65
  23890 513114.00
  23892 513047.40
  23894 512979.75
  23896 512913.30
  23898 512845.65
  23900 512779.20
  23902 512711.55
  23904 512644.05
  23906 512577.60
  23908 512509.80
  23910 512443.50
  23912 512376.00
  23914 512308.50
  23916 512242.20
  23918 512174.70
  23920 512108.25
  23922 512040.75
  23924 511973.25
  23926 511906.95
  23928 511839.60
  23930 511772.10
  23932 511705.80
  23934 511638.30
  23936 511570.95
  23938 511504.80
  23940 511437.45
  23942 511370.10
  23944 511303.95
  23946 511236.60
  23948 511169.25
  23950 511103.10
  23952 511035.75
  23954 510968.55
  23956 510902.55
  23958 510835.20
  23960 510768.00
  23962 510701.85
  23964 510634.65
  23966 510567.45
  23968 510500.25
  23970 510434.10
  23972 510366.90
  23974 510299.85
  23976 510233.85
  23978 510166.65
  23980 510099.60
  23982 510032.40
  23984 509966.55
  23986 509899.50
  23988 509832.30
  23990 509765.25
  23992 509699.40
  23994 509632.35
  23996 509565.30
  23998 509498.40
  24000 509432.40
  24002 509365.50
  24004 509298.45
  24006 509231.55
  24008 509164.65
  24010 509098.80
  24012 509031.90
  24014 508965.00
  24016 508898.10
  24018 508831.20
  24020 508765.50
  24022 508698.75
  24024 508631.70
  24026 508564.95
  24028 508498.20
  24030 508432.50
  24032 508365.75
  24034 508298.85
  24036 508232.25
  24038 508165.35
  24040 508098.60
  24042 508033.05
  24044 507966.30
  24046 507899.70
  24048 507832.80
  24050 507766.20
  24052 507699.60
  24054 507632.85
  24056 507566.25
  24058 507500.70
  24060 507434.25
  24062 507367.50
  24064 507300.90
  24066 507234.30
  24068 507167.70
  24070 507101.25
  24072 507034.65
  24074 506968.05
  24076 506902.65
  24078 506836.20
  24080 506769.60
  24082 506703.15
  24084 506636.70
  24086 506570.10
  24088 506503.80
  24090 506437.35
  24092 506370.90
  24094 506304.45
  24096 506238.15
  24098 506171.70
  24100 506105.40
  24102 506038.95
  24104 505972.65
  24106 505907.40
  24108 505840.95
  24110 505774.80
  24112 505708.35
  24114 505642.20
  24116 505575.90
  24118 505509.60
  24120 505443.30
  24122 505377.15
  24124 505310.85
  24126 505244.70
  24128 505178.40
  24130 505112.25
  24132 505045.95
  24134 504979.80
  24136 504913.65
  24138 504847.50
  24140 504781.50
  24142 504715.20
  24144 504649.20
  24146 504582.00
  24148 504515.85
  24150 504449.85
  24152 504383.70
  24154 504317.70
  24156 504251.55
  24158 504185.55
  24160 504119.55
  24162 504053.55
  24164 503987.55
  24166 503921.55
  24168 503855.70
  24170 503789.70
  24172 503723.70
  24174 503657.70
  24176 503591.85
  24178 503524.80
  24180 503458.95
  24182 503392.95
  24184 503327.25
  24186 503261.25
  24188 503195.40
  24190 503129.55
  24192 503063.85
  24194 502998.00
  24196 502931.10
  24198 502865.25
  24200 502799.55
  24202 502733.70
  24204 502668.00
  24206 502602.30
  24208 502536.45
  24210 502469.70
  24212 502404.00
  24214 502338.30
  24216 502272.60
  24218 502206.90
  24220 502141.35
  24222 502075.65
  24224 502008.75
  24226 501943.20
  24228 501877.65
  24230 501811.95
  24232 501746.40
  24234 501679.80
  24236 501614.10
  24238 501548.55
  24240 501483.15
  24242 501417.45
  24244 501351.00
  24246 501285.45
  24248 501219.90
  24250 501154.35
  24252 501088.95
  24254 501022.35
  24256 500956.80
  24258 500891.55
  24260 500826.15
  24262 500759.70
  24264 500694.15
  24266 500628.75
  24268 500563.35
  24270 500497.05
  24272 500431.65
  24274 500366.25
  24276 500300.85
  24278 500234.55
  24280 500169.15
  24282 500103.90
  24284 500038.65
  24286 499972.35
  24288 499907.10
  24290 499841.70
  24292 499775.40
  24294 499710.15
  24296 499645.05
  24298 499579.80
  24300 499513.50
  24302 499448.25
  24304 499383.15
  24306 499316.85
  24308 499251.75
  24310 499186.65
  24312 499120.35
  24314 499055.40
  24316 498990.15
  24318 498924.00
  24320 498858.90
  24322 498793.80
  24324 498727.80
  24326 498662.70
  24328 498597.60
  24330 498531.45
  24332 498466.50
  24334 498401.55
  24336 498335.40
  24338 498270.45
  24340 498204.45
  24342 498139.50
  24344 498074.70
  24346 498008.55
  24348 497943.60
  24350 497878.65
  24352 497812.80
  24354 497748.00
  24356 497681.85
  24358 497617.05
  24360 497552.25
  24362 497486.40
  24364 497421.45
  24366 497355.60
  24368 497290.80
  24370 497224.95
  24372 497160.15
  24374 497095.35
  24376 497029.65
  24378 496964.70
  24380 496899.00
  24382 496834.20
  24384 496768.50
  24386 496703.70
  24388 496639.05
  24390 496573.35
  24392 496508.70
  24394 496443.00
  24396 496378.20
  24398 496312.65
  24400 496248.00
  24402 496182.30
  24404 496117.80
  24406 496051.95
  24408 495987.45
  24410 495921.75
  24412 495857.25
  24414 495791.70
  24416 495727.05
  24418 495661.65
  24420 495597.00
  24422 495531.45
  24424 495466.95
  24426 495401.40
  24428 495337.05
  24430 495271.50
  24432 495207.00
  24434 495141.45
  24436 495077.10
  24438 495011.70
  24440 494947.20
  24442 494881.80
  24444 494816.40
  24446 494752.05
  24448 494686.50
  24450 494622.15
  24452 494556.90
  24454 494492.55
  24456 494427.30
  24458 494362.95
  24460 494297.55
  24462 494232.15
  24464 494167.80
  24466 494102.70
  24468 494038.35
  24470 493973.10
  24472 493907.85
  24474 493843.50
  24476 493778.40
  24478 493714.20
  24480 493648.95
  24482 493583.70
  24484 493519.65
  24486 493454.25
  24488 493390.20
  24490 493325.10
  24492 493259.85
  24494 493195.95
  24496 493130.70
  24498 493065.60
  24500 492984.60
  24502 492902.70
  24504 492838.80
  24506 492773.55
  24508 492708.45
  24510 492644.55
  24512 492579.45
  24514 492514.35
  24516 492450.45
  24518 492385.50
  24520 492320.40
  24522 492256.65
  24524 492191.55
  24526 492126.60
  24528 492062.70
  24530 491997.75
  24532 491932.80
  24534 491868.00
  24536 491804.10
  24538 491739.15
  24540 491674.35
  24542 491610.60
  24544 491545.65
  24546 491480.85
  24548 491417.10
  24550 491352.30
  24552 491287.35
  24554 491222.55
  24556 491158.95
  24558 491094.15
  24560 491029.35
  24562 490964.70
  24564 490901.10
  24566 490836.30
  24568 490771.50
  24570 490706.85
  24572 490643.25
  24574 490578.45
  24576 490513.80
  24578 490449.30
  24580 490385.70
  24582 490321.05
  24584 490256.55
  24586 490191.90
  24588 490127.40
  24590 490063.80
  24592 489999.30
  24594 489934.65
  24596 489870.15
  24598 489806.70
  24600 489742.05
  24602 489677.70
  24604 489613.05
  24606 489548.70
  24608 489484.20
  24610 489420.75
  24612 489356.40
  24614 489291.90
  24616 489227.55
  24618 489163.05
  24620 489099.75
  24622 489035.40
  24624 488971.05
  24626 488906.70
  24628 488842.20
  24630 488778.00
  24632 488714.70
  24634 488650.35
  24636 488586.15
  24638 488521.80
  24640 488457.60
  24642 488393.25
  24644 488328.90
  24646 488264.70
  24648 488201.55
  24650 488137.35
  24652 488073.15
  24654 488008.95
  24656 487944.75
  24658 487880.55
  24660 487816.35
  24662 487752.30
  24664 487688.10
  24666 487624.05
  24668 487561.05
  24670 487496.85
  24672 487432.65
  24674 487368.75
  24676 487304.55
  24678 487240.65
  24680 487176.60
  24682 487112.55
  24684 487048.50
  24686 486984.45
  24688 486920.40
  24690 486856.50
  24692 486792.60
  24694 486728.55
  24696 486665.70
  24698 486601.80
  24700 486537.90
  24702 486474.00
  24704 486409.95
  24706 486346.20
  24708 486282.30
  24710 486218.40
  24712 486154.50
  24714 486090.60
  24716 486026.85
  24718 485963.10
  24720 485899.20
  24722 485835.45
  24724 485771.55
  24726 485707.95
  24728 485644.20
  24730 485580.45
  24732 485516.70
  24734 485452.95
  24736 485389.20
  24738 485325.45
  24740 485261.85
  24742 485198.10
  24744 485134.50
  24746 485070.90
  24748 485007.30
  24750 484943.55
  24752 484879.80
  24754 484816.35
  24756 484752.75
  24758 484688.10
  24760 484624.50
  24762 484561.05
  24764 484497.45
  24766 484433.85
  24768 484370.40
  24770 484306.80
  24772 484243.35
  24774 484179.75
  24776 484116.45
  24778 484052.85
  24780 483989.40
  24782 483925.95
  24784 483862.50
  24786 483798.15
  24788 483734.70
  24790 483671.25
  24792 483607.80
  24794 483544.50
  24796 483481.20
  24798 483417.75
  24800 483354.45
  24802 483291.15
  24804 483226.80
  24806 483163.50
  24808 483100.20
  24810 483036.90
  24812 482973.60
  24814 482910.45
  24816 482847.15
  24818 482783.85
  24820 482719.65
  24822 482656.35
  24824 482593.20
  24826 482530.05
  24828 482466.90
  24830 482403.75
  24832 482339.40
  24834 482276.40
  24836 482213.10
  24838 482150.10
  24840 482086.95
  24842 482023.95
  24844 481959.75
  24846 481896.60
  24848 481833.60
  24850 481770.45
  24852 481707.45
  24854 481643.55
  24856 481580.40
  24858 481517.40
  24860 481454.40
  24862 481391.55
  24864 481327.35
  24866 481264.50
  24868 481201.50
  24870 481138.50
  24872 481075.65
  24874 481011.60
  24876 480948.75
  24878 480885.90
  24880 480823.05
  24882 480759.15
  24884 480696.30
  24886 480633.45
  24888 480570.45
  24890 480506.70
  24892 480443.85
  24894 480381.15
  24896 480318.30
  24898 480254.40
  24900 480191.70
  24902 480129.00
  24904 480066.30
  24906 480002.55
  24908 479939.70
  24910 479877.00
  24912 479813.25
  24914 479750.55
  24916 479687.85
  24918 479625.30
  24920 479561.55
  24922 479498.85
  24924 479436.30
  24926 479372.70
  24928 479310.00
  24930 479247.30
  24932 479183.85
  24934 479121.15
  24936 479058.60
  24938 478995.15
  24940 478932.45
  24942 478870.05
  24944 478807.50
  24946 478744.05
  24948 478681.35
  24950 478618.95
  24952 478555.50
  24954 478492.95
  24956 478429.65
  24958 478366.95
  24960 478304.70
  24962 478241.25
  24964 478178.70
  24966 478116.45
  24968 478052.85
  24970 477990.60
  24972 477928.20
  24974 477864.75
  24976 477802.50
  24978 477739.20
  24980 477676.95
  24982 477614.70
  24984 477551.25
  24986 477489.00
  24988 477425.55
  24990 477363.45
  24992 477301.20
  24994 477237.90
  24996 477175.65
  24998 477112.35
  25000 477050.25
  25002 476988.00
  25004 476924.85
  25006 476862.60
  25008 476799.45
  25010 476737.20
  25012 476674.20
  25014 476611.95
  25016 476549.85
  25018 476486.70
  25020 476424.60
  25022 476361.60
  25024 476299.50
  25026 476236.35
  25028 476174.40
  25030 476111.25
  25032 476049.30
  25034 475987.20
  25036 475924.20
  25038 475862.25
  25040 475799.25
  25042 475737.30
  25044 475674.15
  25046 475612.35
  25048 475549.35
  25050 475487.55
  25052 475424.55
  25054 475362.60
  25056 475299.60
  25058 475237.80
  25060 475174.80
  25062 475113.00
  25064 475050.15
  25066 474988.20
  25068 474925.50
  25070 474863.70
  25072 474800.70
  25074 474739.05
  25076 474676.20
  25078 474614.40
  25080 474551.70
  25082 474489.90
  25084 474427.20
  25086 474364.35
  25088 474302.70
  25090 474239.85
  25092 474178.35
  25094 474115.50
  25096 474053.85
  25098 473991.15
  25100 473929.65
  25102 473866.95
  25104 473805.15
  25106 473742.60
  25108 473680.05
  25110 473618.25
  25112 473555.70
  25114 473494.20
  25116 473431.65
  25118 473368.95
  25120 473307.45
  25122 473244.90
  25124 473183.40
  25126 473120.85
  25128 473059.35
  25130 472996.95
  25132 472934.40
  25134 472872.90
  25136 472810.50
  25138 472747.95
  25140 472686.45
  25142 472624.20
  25144 472562.70
  25146 472500.30
  25148 472437.90
  25150 472376.55
  25152 472314.15
  25154 472252.80
  25156 472190.40
  25158 472128.00
  25160 472066.80
  25162 472004.40
  25164 471942.15
  25166 471880.80
  25168 471818.55
  25170 471756.15
  25172 471694.80
  25174 471632.70
  25176 471570.45
  25178 471509.25
  25180 471447.00
  25182 471384.75
  25184 471323.55
  25186 471261.30
  25188 471199.20
  25190 471138.00
  25192 471075.90
  25194 471013.65
  25196 470952.60
  25198 470890.35
  25200 470828.25
  25202 470766.15
  25204 470705.10
  25206 470643.00
  25208 470580.90
  25210 470519.85
  25212 470457.75
  25214 470395.80
  25216 470333.70
  25218 470272.80
  25220 470210.85
  25222 470148.75
  25224 470087.70
  25226 470025.75
  25228 469963.80
  25230 469901.85
  25232 469840.80
  25234 469779.00
  25236 469717.05
  25238 469655.10
  25240 469594.20
  25242 469532.25
  25244 469470.45
  25246 469408.65
  25248 469347.75
  25250 469285.80
  25252 469224.00
  25254 469162.20
  25256 469100.40
  25258 469039.65
  25260 468977.70
  25262 468916.05
  25264 468854.25
  25266 468792.45
  25268 468731.70
  25270 468670.05
  25272 468608.25
  25274 468546.45
  25276 468485.85
  25278 468424.20
  25280 468362.40
  25282 468300.75
  25284 468239.10
  25286 468177.45
  25288 468116.85
  25290 468055.20
  25292 467993.70
  25294 467931.90
  25296 467870.40
  25298 467808.75
  25300 467748.30
  25302 467686.65
  25304 467625.00
  25306 467563.50
  25308 467502.00
  25310 467440.50
  25312 467380.05
  25314 467318.40
  25316 467257.05
  25318 467195.40
  25320 467134.05
  25322 467072.55
  25324 467011.20
  25326 466950.60
  25328 466889.25
  25330 466827.90
  25332 466766.40
  25334 466705.05
  25336 466643.55
  25338 466582.20
  25340 466520.85
  25342 466459.50
  25344 466399.20
  25346 466337.70
  25348 466276.50
  25350 466215.30
  25352 466153.80
  25354 466092.60
  25356 466031.25
  25358 465970.05
  25360 465908.70
  25362 465847.50
  25364 465786.30
  25366 465726.15
  25368 465664.95
  25370 465603.60
  25372 465542.55
  25374 465481.35
  25376 465420.15
  25378 465358.80
  25380 465297.90
  25382 465236.55
  25384 465175.50
  25386 465114.30
  25388 465053.25
  25390 464992.20
  25392 464931.15
  25394 464870.10
  25396 464809.05
  25398 464747.85
  25400 464686.80
  25402 464625.75
  25404 464564.85
  25406 464503.65
  25408 464442.75
  25410 464381.70
  25412 464320.65
  25414 464259.75
  25416 464198.85
  25418 464137.80
  25420 464076.90
  25422 464015.85
  25424 463955.10
  25426 463894.20
  25428 463833.30
  25430 463772.40
  25432 463711.50
  25434 463650.60
  25436 463589.70
  25438 463528.95
  25440 463468.05
  25442 463407.30
  25444 463346.40
  25446 463285.65
  25448 463224.90
  25450 463164.15
  25452 463103.25
  25454 463042.50
  25456 462981.90
  25458 462921.00
  25460 462860.25
  25462 462799.50
  25464 462738.75
  25466 462678.15
  25468 462617.55
  25470 462556.80
  25472 462496.20
  25474 462434.40
  25476 462373.80
  25478 462313.20
  25480 462252.60
  25482 462191.85
  25484 462131.40
  25486 462070.80
  25488 462010.20
  25490 461949.60
  25492 461889.00
  25494 461828.55
  25496 461767.95
  25498 461706.30
  25500 462318.60
  25502 462932.70
  25504 462872.10
  25506 462811.35
  25508 462750.75
  25510 462690.00
  25512 462629.40
  25514 462568.80
  25516 462506.85
  25518 462446.10
  25520 462385.35
  25522 462324.45
  25524 462263.70
  25526 462202.80
  25528 462141.90
  25530 462079.95
  25532 462019.20
  25534 461958.15
  25536 461897.10
  25538 461836.20
  25540 461775.15
  25542 461714.10
  25544 461652.00
  25546 461591.10
  25548 461529.90
  25550 461468.70
  25552 461407.50
  25554 461346.45
  25556 461284.20
  25558 461223.00
  25560 461161.80
  25562 461100.45
  25564 461039.25
  25566 460976.85
  25568 460915.50
  25570 460854.30
  25572 460792.80
  25574 460731.60
  25576 460669.05
  25578 460607.70
  25580 460546.20
  25582 460484.70
  25584 460423.20
  25586 460360.65
  25588 460299.15
  25590 460237.65
  25592 460176.00
  25594 460114.35
  25596 460051.65
  25598 459990.15
  25600 459928.35
  25602 459866.70
  25604 459804.00
  25606 459742.20
  25608 459680.40
  25610 459618.75
  25612 459555.90
  25614 459493.95
  25616 459432.15
  25618 459370.35
  25620 459307.35
  25622 459245.55
  25624 459183.60
  25626 459121.65
  25628 459058.65
  25630 458996.70
  25632 458934.60
  25634 458872.65
  25636 458809.50
  25638 458747.40
  25640 458685.30
  25642 458622.15
  25644 458560.05
  25646 458497.80
  25648 458434.65
  25650 458372.55
  25652 458310.15
  25654 458247.90
  25656 458184.45
  25658 458122.20
  25660 458059.95
  25662 457996.65
  25664 457934.25
  25666 457871.85
  25668 457808.40
  25670 457746.00
  25672 457683.45
  25674 457620.00
  25676 457557.45
  25678 457495.05
  25680 457431.45
  25682 457368.90
  25684 457306.35
  25686 457242.60
  25688 457180.05
  25690 457117.35
  25692 457053.60
  25694 456991.05
  25696 456928.35
  25698 456864.45
  25700 456801.75
  25702 456739.05
  25704 456675.15
  25706 456612.30
  25708 456549.45
  25710 456485.70
  25712 456422.70
  25714 456358.80
  25716 456295.80
  25718 456232.80
  25720 456168.90
  25722 456105.90
  25724 456041.70
  25726 455978.70
  25728 455915.70
  25730 455851.65
  25732 455788.50
  25734 455724.30
  25736 455661.30
  25738 455598.00
  25740 455533.80
  25742 455470.65
  25744 455406.45
  25746 455343.15
  25748 455279.85
  25750 455215.50
  25752 455152.20
  25754 455087.85
  25756 455024.40
  25758 454961.10
  25760 454896.60
  25762 454833.30
  25764 454768.65
  25766 454705.20
  25768 454640.85
  25770 454577.25
  25772 454512.75
  25774 454449.15
  25776 454385.55
  25778 454320.90
  25780 454257.30
  25782 454192.65
  25784 454128.90
  25786 454064.25
  25788 454000.50
  25790 453935.85
  25792 453872.10
  25794 453807.30
  25796 453743.55
  25798 453678.60
  25800 453614.85
  25802 453549.90
  25804 453486.00
  25806 453422.10
  25808 453357.15
  25810 453292.20
  25812 453228.30
  25814 453163.35
  25816 453099.15
  25818 453034.20
  25820 452970.15
  25822 452905.05
  25824 452841.00
  25826 452775.75
  25828 452711.70
  25830 452646.45
  25832 452582.25
  25834 452517.15
  25836 452452.80
  25838 452387.55
  25840 452323.20
  25842 452257.95
  25844 452193.60
  25846 452128.35
  25848 452064.00
  25850 451998.60
  25852 451934.25
  25854 451868.70
  25856 451803.30
  25858 451738.80
  25860 451673.25
  25862 451608.90
  25864 451543.20
  25866 451478.70
  25868 451413.15
  25870 451348.50
  25872 451282.95
  25874 451217.25
  25876 451152.75
  25878 451087.05
  25880 451022.25
  25882 450956.55
  25884 450890.70
  25886 450826.05
  25888 450760.20
  25890 450695.40
  25892 450629.55
  25894 450564.75
  25896 450498.90
  25898 450432.90
  25900 450367.95
  25902 450302.10
  25904 450237.15
  25906 450171.15
  25908 450105.15
  25910 450040.20
  25912 449974.05
  25914 449908.95
  25916 449842.80
  25918 449776.80
  25920 449711.70
  25922 449645.40
  25924 449579.40
  25926 449514.00
  25928 449448.00
  25930 449381.70
  25932 449316.45
  25934 449250.30
  25936 449184.75
  25938 449118.45
  25940 449052.15
  25942 448986.90
  25944 448920.45
  25946 448854.15
  25948 448788.60
  25950 448722.15
  25952 448655.70
  25954 448590.15
  25956 448523.70
  25958 448457.10
  25960 448391.70
  25962 448325.10
  25964 448258.35
  25966 448192.80
  25968 448126.20
  25970 448059.45
  25972 447993.75
  25974 447927.00
  25976 447860.40
  25978 447793.65
  25980 447727.80
  25982 447661.20
  25984 447594.30
  25986 447528.45
  25988 447461.70
  25990 447394.80
  25992 447328.80
  25994 447261.90
  25996 447194.85
  25998 447128.10
  26000 447068.70
