# near-IR sky background 0.9-5.6um
# 1.6mm H2O, sec z = 2.0, middle of night (low OH)
#  
# Modification of original spectrum from Tom Geballe
# 22Aug00 - converted to units of nm from um : Phil Puxley
#
#  Wavelength    Flux density
#  (nm)  (ph/sec/nm/arcsec2/m2)

   900.0     4.61523
   900.5     5.47564
   901.0     4.24396
   901.5     3.13757
   902.0     3.11814
   902.5     3.12802
   903.0      3.1673
   903.5     3.49923
   904.0     3.82958
   904.5     3.90536
   905.0     4.23747
   905.5     4.02655
   906.0     3.44384
   906.5     3.18804
   907.0     3.10797
   907.5     3.08157
   908.0      3.1154
   908.5     3.12222
   909.0     3.23393
   909.5     3.35612
   910.0     3.41807
   910.5     3.49272
   911.0     3.32587
   911.5     3.18295
   912.0     3.14324
   912.5     3.14822
   913.0     3.11064
   913.5      3.0471
   914.0     3.07913
   914.5     3.16744
   915.0     3.18107
   915.5     3.10425
   916.0     3.13995
   916.5     3.25222
   917.0     3.20092
   917.5     3.08587
   918.0     3.08596
   918.5      3.1373
   919.0      3.1672
   919.5     3.16943
   920.0     3.17818
   920.5     3.20469
   921.0     3.19829
   921.5     3.18401
   922.0       3.188
   922.5     3.20997
   923.0     3.20596
   923.5     3.18385
   924.0     3.16569
   924.5     3.15676
   925.0     3.15359
   925.5      3.1648
   926.0     3.16736
   926.5     3.16711
   927.0     3.17444
   927.5     3.14054
   928.0     3.07647
   928.5     3.05314
   929.0     3.04967
   929.5     3.00579
   930.0     3.04919
   930.5     4.85184
   931.0     8.20672
   931.5     9.74255
   932.0     6.42336
   932.5     7.16995
   933.0     5.22826
   933.5     3.35508
   934.0     3.45431
   934.5     2.65768
   935.0     2.41695
   935.5     2.41051
   936.0     2.30631
   936.5     2.45328
   937.0     3.42028
   937.5     7.60545
   938.0    10.55972
   938.5      7.6192
   939.0     6.06588
   939.5     4.85286
   940.0     3.78547
   940.5     4.32367
   941.0     3.48692
   941.5     3.37051
   942.0     4.63926
   942.5      4.7132
   943.0      2.9609
   943.5     4.58707
   944.0     7.16387
   944.5     5.66032
   945.0     4.22215
   945.5     3.84326
   946.0     4.68001
   946.5     3.84377
   947.0     3.10372
   947.5      6.7692
   948.0    10.28024
   948.5     5.52138
   949.0     2.79588
   949.5     2.63006
   950.0     3.37821
   950.5     4.47518
   951.0     4.08543
   951.5     4.92702
   952.0     6.80728
   952.5     5.98797
   953.0     3.60966
   953.5     2.78276
   954.0     2.74629
   954.5     2.64899
   955.0     3.41391
   955.5     4.11084
   956.0     3.40357
   956.5     4.36126
   957.0     5.62554
   957.5     4.56214
   958.0      2.8379
   958.5      2.7241
   959.0     2.65741
   959.5     2.63578
   960.0     2.76155
   960.5      3.1903
   961.0     3.57298
   961.5     3.44768
   962.0     3.79471
   962.5      4.1239
   963.0     3.46894
   963.5     2.88365
   964.0     2.79453
   964.5     2.78135
   965.0     2.86481
   965.5      3.0674
   966.0     3.19597
   966.5      3.5034
   967.0       4.156
   967.5     4.13145
   968.0     5.05699
   968.5     6.07691
   969.0     5.20926
   969.5      5.7156
   970.0     7.78862
   970.5     6.48093
   971.0     5.04731
   971.5     6.82695
   972.0     8.98241
   972.5     7.93517
   973.0      4.6069
   973.5     4.10051
   974.0     5.22993
   974.5         4.3
   975.0     3.15149
   975.5     2.95499
   976.0      2.8811
   976.5     2.90309
   977.0     2.95118
   977.5     2.96813
   978.0     2.94217
   978.5     4.86014
   979.0     15.0939
   979.5      22.537
   980.0     16.4146
   980.5     7.82519
   981.0     5.67735
   981.5      5.1326
   982.0     4.00863
   982.5     3.28248
   983.0     3.51568
   983.5      3.2742
   984.0     3.01197
   984.5     4.74383
   985.0     6.90285
   985.5     5.38729
   986.0     3.29151
   986.5     3.16907
   987.0     9.85786
   987.5      16.632
   988.0     9.67863
   988.5     3.07226
   989.0     4.27085
   989.5     6.85279
   990.0     6.75881
   990.5     4.18236
   991.0     6.74207
   991.5     14.0122
   992.0     13.4385
   992.5     6.20029
   993.0     2.95543
   993.5     3.09859
   994.0     6.82308
   994.5     15.8071
   995.0     18.0211
   995.5     13.3359
   996.0     16.2292
   996.5     16.1672
   997.0     8.46479
   997.5     5.14295
   998.0     4.08238
   998.5     3.01197
   999.0     2.94062
   999.5     3.35398
  1000.0      4.3635
  1000.5     4.62072
  1001.0     12.4003
  1001.5      21.986
  1002.0      14.685
  1002.5     8.06658
  1003.0     8.08733
  1003.5     5.01689
  1004.0     4.04082
  1004.5      5.1067
  1005.0     4.22215
  1005.5     3.69944
  1006.0     5.45794
  1006.5     6.71502
  1007.0     5.85563
  1007.5     4.68445
  1008.0     8.34823
  1008.5     12.9411
  1009.0     7.99774
  1009.5     3.20393
  1010.0     4.78681
  1010.5     6.78538
  1011.0     5.32769
  1011.5     3.27407
  1012.0     7.17585
  1012.5      13.458
  1013.0     10.8914
  1013.5      5.0207
  1014.0     3.20367
  1014.5     3.44349
  1015.0     5.70305
  1015.5     8.70984
  1016.0     8.41645
  1016.5     6.35428
  1017.0     13.0873
  1017.5     20.7779
  1018.0     13.3837
  1018.5    10.47637
  1019.0     16.6715
  1019.5     15.0996
  1020.0      9.8776
  1020.5     11.6132
  1021.0     19.9536
  1021.5     23.5268
  1022.0     12.1513
  1022.5     6.99827
  1023.0      12.336
  1023.5     11.4899
  1024.0     5.56462
  1024.5     2.84012
  1025.0     2.83916
  1025.5     2.83718
  1026.0     2.83841
  1026.5      2.9269
  1027.0     3.56443
  1027.5     4.05183
  1028.0     6.24595
  1028.5     35.5419
  1029.0     63.3177
  1029.5     42.0927
  1030.0     21.3707
  1030.5      12.755
  1031.0     8.11369
  1031.5      7.4278
  1032.0     4.25895
  1032.5     3.86085
  1033.0     4.62163
  1033.5       3.767
  1034.0     3.29676
  1034.5     8.95741
  1035.0     15.0508
  1035.5     9.68697
  1036.0     3.71145
  1036.5     3.00437
  1037.0     20.1861
  1037.5     40.0327
  1038.0     23.0982
  1038.5     4.24627
  1039.0     3.23787
  1039.5     10.2672
  1040.0     16.7982
  1040.5     9.39397
  1041.0     2.84054
  1041.5     19.5308
  1042.0     40.4783
  1042.5     26.1477
  1043.0     6.23769
  1043.5     2.97258
  1044.0     2.80629
  1044.5     4.13767
  1045.0     9.62118
  1045.5     12.4532
  1046.0     6.78806
  1046.5     11.8102
  1047.0     25.5117
  1047.5      20.178
  1048.0     6.80545
  1048.5     2.75293
  1049.0     2.75043
  1049.5     2.76653
  1050.0     2.79116
  1050.5     4.66721
  1051.0     7.72622
  1051.5     6.84224
  1052.0     6.66978
  1052.5     12.0749
  1053.0     12.6781
  1053.5     6.16147
  1054.0      2.7327
  1054.5     2.73098
  1055.0     2.72922
  1055.5     2.72744
  1056.0     2.72564
  1056.5     2.73259
  1057.0     3.84116
  1057.5     5.05851
  1058.0     4.31926
  1058.5     5.47372
  1059.0     7.03528
  1059.5     4.62685
  1060.0     2.72884
  1060.5     2.72448
  1061.0     2.71278
  1061.5      2.7056
  1062.0     2.70355
  1062.5     2.70136
  1063.0      2.6994
  1063.5     2.76157
  1064.0     3.11474
  1064.5     3.36142
  1065.0     3.60217
  1065.5     3.96921
  1066.0     3.34607
  1066.5     2.71466
  1067.0     2.68422
  1067.5     2.68086
  1068.0     2.83639
  1068.5      3.8502
  1069.0      5.1203
  1069.5     7.11136
  1070.0     9.43787
  1070.5     8.87425
  1071.0     12.3065
  1071.5     16.3741
  1072.0     12.2247
  1072.5     17.6653
  1073.0     27.7097
  1073.5     19.0098
  1074.0    10.46084
  1074.5     14.4401
  1075.0     25.7737
  1075.5     32.6202
  1076.0      15.852
  1076.5     2.75151
  1077.0     8.04606
  1077.5     13.5297
  1078.0     8.18721
  1078.5     2.80759
  1079.0     2.65572
  1079.5     2.66906
  1080.0       2.671
  1080.5     2.67373
  1081.0     2.64851
  1081.5     2.62504
  1082.0     2.62721
  1082.5      8.0723
  1083.0      51.227
  1083.5     85.5415
  1084.0      56.974
  1084.5     32.3782
  1085.0     17.1337
  1085.5     8.66956
  1086.0     12.3983
  1086.5     7.14043
  1087.0     2.94359
  1087.5      4.4569
  1088.0      5.5289
  1088.5      3.8949
  1089.0      4.0597
  1089.5     12.5475
  1090.0     18.8092
  1090.5    10.02224
  1091.0     2.88102
  1091.5     2.59589
  1092.0     25.0097
  1092.5     52.7009
  1093.0     36.0664
  1093.5     8.31437
  1094.0     2.62957
  1094.5     11.1661
  1095.0     22.0223
  1095.5      15.248
  1096.0     4.42975
  1096.5     2.84672
  1097.0     31.8937
  1097.5     62.7009
  1098.0     32.7009
  1098.5     3.73624
  1099.0     2.52557
  1099.5     2.50063
  1100.0     3.10761
  1100.5     11.3755
  1101.0     18.5281
  1101.5    10.27828
  1102.0     3.28371
  1102.5     22.9123
  1103.0     42.4243
  1103.5     22.2653
  1104.0     2.77603
  1104.5     2.46197
  1105.0      2.4851
  1105.5     2.47743
  1106.0     2.44296
  1106.5     4.64118
  1107.0     9.65906
  1107.5     9.54613
  1108.0     4.84809
  1108.5     11.9689
  1109.0     22.2522
  1109.5     12.3197
  1110.0     2.70469
  1110.5     2.38164
  1111.0     2.32982
  1111.5     2.34192
  1112.0     2.39887
  1112.5     2.35824
  1113.0     2.21615
  1113.5     3.57241
  1114.0     5.54781
  1114.5     4.42853
  1115.0     4.78615
  1115.5     7.91014
  1116.0     5.77158
  1116.5     2.01791
  1117.0     1.75733
  1117.5     1.96536
  1118.0     2.08978
  1118.5     1.97735
  1119.0     1.80446
  1119.5     1.82325
  1120.0     1.89444
  1120.5     1.96554
  1121.0     2.61491
  1121.5     2.77895
  1122.0     2.13611
  1122.5     2.14246
  1123.0      3.0985
  1123.5     2.22055
  1124.0     1.80344
  1124.5     2.03557
  1125.0     1.83618
  1125.5     1.42822
  1126.0     1.54639
  1126.5     1.85974
  1127.0     1.96316
  1127.5     1.78737
  1128.0     1.80729
  1128.5     3.00122
  1129.0     4.66253
  1129.5     6.36461
  1130.0     8.01355
  1130.5     11.2828
  1131.0     16.1881
  1131.5     16.2439
  1132.0     11.8067
  1132.5     18.0588
  1133.0     30.1267
  1133.5     11.8462
  1134.0     5.25643
  1134.5     5.65749
  1135.0     9.26606
  1135.5     30.0622
  1136.0     11.5963
  1136.5     2.05345
  1137.0     6.04496
  1137.5      10.912
  1138.0     10.8527
  1138.5     3.93695
  1139.0     2.28431
  1139.5     2.26071
  1140.0     2.08994
  1140.5     2.05461
  1141.0     1.96833
  1141.5     1.99429
  1142.0     2.07405
  1142.5     2.16437
  1143.0      5.1674
  1143.5      51.729
  1144.0     76.8896
  1144.5     43.3319
  1145.0     27.4725
  1145.5        18.9
  1146.0     7.04666
  1146.5     7.42055
  1147.0      9.3242
  1147.5     4.48483
  1148.0     2.31908
  1148.5     4.15986
  1149.0      5.0323
  1149.5     3.39459
  1150.0     3.16681
  1150.5     13.2459
  1151.0     17.0499
  1151.5     9.77413
  1152.0     2.58877
  1152.5     2.02849
  1153.0     6.43254
  1153.5     36.5489
  1154.0     51.3241
  1154.5     25.6361
  1155.0     2.32721
  1155.5     2.32593
  1156.0     13.0524
  1156.5     25.4317
  1157.0     15.0473
  1157.5     2.53276
  1158.0     2.13805
  1158.5     28.4808
  1159.0     58.0382
  1159.5     46.8211
  1160.0     11.2399
  1160.5     2.14935
  1161.0     2.21573
  1161.5     2.24449
  1162.0     6.29883
  1162.5     15.8334
  1163.0     19.9878
  1163.5     8.56255
  1164.0     2.39601
  1164.5      26.428
  1165.0     51.3878
  1165.5     30.0869
  1166.0     4.57058
  1166.5     2.25833
  1167.0     2.26852
  1167.5     2.28454
  1168.0     2.28184
  1168.5     2.28011
  1169.0     7.38869
  1169.5     13.6728
  1170.0     9.80252
  1170.5     3.41901
  1171.0     13.7092
  1171.5      28.689
  1172.0     18.0903
  1172.5     4.35124
  1173.0     2.26859
  1173.5     2.23032
  1174.0     2.18191
  1174.5     2.22772
  1175.0     2.26487
  1175.5     2.26208
  1176.0     2.29891
  1176.5     4.83636
  1177.0     7.76405
  1177.5      4.9846
  1178.0     4.33769
  1178.5     9.69659
  1179.0     11.8188
  1179.5     5.68602
  1180.0     2.24899
  1180.5      2.2758
  1181.0     2.25193
  1181.5     2.16756
  1182.0     2.10746
  1182.5      2.1819
  1183.0     2.25669
  1183.5     2.26454
  1184.0     2.22293
  1184.5     2.90004
  1185.0     3.83243
  1185.5     3.40766
  1186.0     3.81087
  1186.5      5.4351
  1187.0     4.43004
  1187.5     2.57549
  1188.0     2.14194
  1188.5     2.16913
  1189.0       2.214
  1189.5     2.23587
  1190.0     2.24004
  1190.5     2.22853
  1191.0     2.22855
  1191.5     2.23609
  1192.0     2.24128
  1192.5     2.24726
  1193.0     2.29309
  1193.5     2.51588
  1194.0     2.68888
  1194.5     2.73939
  1195.0     2.99503
  1195.5     2.79042
  1196.0     2.74723
  1196.5     5.15718
  1197.0     12.3173
  1197.5     15.7938
  1198.0     13.6813
  1198.5     20.1713
  1199.0     24.0314
  1199.5     16.4063
  1200.0     24.7088
  1200.5     40.0507
  1201.0     29.3595
  1201.5    10.02346
  1202.0     10.6017
  1202.5     37.7833
  1203.0     52.5658
  1203.5     25.2493
  1204.0     4.17039
  1204.5     2.32019
  1205.0     8.88675
  1205.5     17.4274
  1206.0     10.8282
  1206.5     2.94267
  1207.0      2.1716
  1207.5     2.16815
  1208.0     2.16781
  1208.5     2.17017
  1209.0      2.1647
  1209.5     2.16588
  1210.0     2.17595
  1210.5     2.18835
  1211.0     2.22081
  1211.5     31.4146
  1212.0     92.9367
  1212.5     93.0119
  1213.0      53.444
  1213.5     44.7823
  1214.0     25.1666
  1214.5     5.39128
  1215.0     10.9557
  1215.5     17.8044
  1216.0     9.68453
  1216.5     2.39178
  1217.0     2.61368
  1217.5     5.11055
  1218.0     7.17474
  1218.5     4.55455
  1219.0     11.3507
  1219.5     23.4258
  1220.0     16.2063
  1220.5     5.16879
  1221.0     3.52723
  1221.5     2.89451
  1222.0     5.16091
  1222.5     43.4863
  1223.0     78.7532
  1223.5     37.7496
  1224.0      2.3307
  1224.5     2.37992
  1225.0     9.04063
  1225.5     24.4781
  1226.0     26.7344
  1226.5     10.8576
  1227.0     2.14174
  1227.5     2.14541
  1228.0     30.7415
  1228.5     76.7941
  1229.0     62.5314
  1229.5     17.5143
  1230.0     2.16422
  1230.5     2.14921
  1231.0     2.14905
  1231.5     2.16781
  1232.0     13.6759
  1232.5     27.2483
  1233.0     16.3872
  1233.5     3.50372
  1234.0     2.14949
  1234.5     26.3801
  1235.0     60.0874
  1235.5     42.6705
  1236.0    10.04339
  1236.5     2.13376
  1237.0     2.13182
  1237.5     2.13128
  1238.0     2.13016
  1238.5     2.12871
  1239.0     2.13812
  1239.5     9.22983
  1240.0     17.5511
  1240.5     10.8125
  1241.0     2.90313
  1241.5      6.7155
  1242.0     24.5473
  1242.5     33.4411
  1243.0     15.0555
  1243.5     2.11671
  1244.0     2.11313
  1244.5     2.11165
  1245.0     2.11033
  1245.5     2.10898
  1246.0     2.10766
  1246.5     2.10586
  1247.0     2.10436
  1247.5     3.71555
  1248.0     7.47788
  1248.5     7.96957
  1249.0     4.16031
  1249.5     5.96104
  1250.0     13.7455
  1250.5     15.3724
  1251.0     12.7173
  1251.5     13.6772
  1252.0     14.1995
  1252.5     10.2775
  1253.0     4.79436
  1253.5     3.34053
  1254.0     7.41696
  1254.5     12.5488
  1255.0     14.3597
  1255.5     13.8004
  1256.0     11.6954
  1256.5     8.43177
  1257.0     7.37576
  1257.5     6.66769
  1258.0     4.19715
  1258.5     6.53215
  1259.0    10.14072
  1259.5      7.7599
  1260.0      6.7073
  1260.5     8.84183
  1261.0    10.12455
  1261.5    10.00045
  1262.0     12.8569
  1262.5     22.4441
  1263.0     33.8786
  1263.5     37.0699
  1264.0     33.8447
  1264.5     29.5653
  1265.0     25.0856
  1265.5     21.1692
  1266.0     13.3261
  1266.5     7.35155
  1267.0     9.05184
  1267.5     13.2387
  1268.0     22.6115
  1268.5     24.7142
  1269.0      23.252
  1269.5     31.0825
  1270.0     25.7693
  1270.5     20.3526
  1271.0     38.6177
  1271.5     60.8559
  1272.0     62.3505
  1272.5      55.777
  1273.0     45.2987
  1273.5     34.6454
  1274.0     21.7805
  1274.5     20.5888
  1275.0     21.6047
  1275.5     20.4868
  1276.0     26.6858
  1276.5     31.7235
  1277.0     18.8116
  1277.5     22.6416
  1278.0     44.6819
  1278.5     38.3659
  1279.0     13.9932
  1279.5     8.83892
  1280.0      34.248
  1280.5     54.5181
  1281.0      44.536
  1281.5     30.8032
  1282.0     28.7718
  1282.5     21.3134
  1283.0     16.9353
  1283.5      24.231
  1284.0     38.2193
  1284.5      62.413
  1285.0     78.9659
  1285.5     81.0792
  1286.0     76.4363
  1286.5     51.7329
  1287.0     17.7716
  1287.5     2.70118
  1288.0     2.00944
  1288.5     2.00916
  1289.0     2.01214
  1289.5     3.43849
  1290.0      63.394
  1290.5     128.968
  1291.0     71.6656
  1291.5     30.0365
  1292.0     47.5561
  1292.5     28.4594
  1293.0     5.89694
  1293.5     6.15862
  1294.0     14.2524
  1294.5     17.1474
  1295.0     7.99223
  1295.5     1.99137
  1296.0     2.32694
  1296.5     4.38092
  1297.0     6.99077
  1297.5     5.97371
  1298.0      14.637
  1298.5     26.8421
  1299.0     15.5008
  1299.5     2.97153
  1300.0     2.40899
  1300.5     3.11876
  1301.0      3.3775
  1301.5     33.9368
  1302.0     77.0214
  1302.5     53.9431
  1303.0     12.0831
  1303.5     1.90112
  1304.0     1.91739
  1304.5      8.7744
  1305.0     26.5544
  1305.5     28.7676
  1306.0     11.6008
  1306.5     1.87959
  1307.0     1.87771
  1307.5     2.66398
  1308.0     46.1431
  1308.5     98.6136
  1309.0     51.1417
  1309.5     3.52187
  1310.0      1.9055
  1310.5      1.9169
  1311.0     1.91064
  1311.5     1.90965
  1312.0     7.54106
  1312.5     21.4018
  1313.0     24.1884
  1313.5     9.72796
  1314.0     1.80753
  1314.5     1.84125
  1315.0     26.1472
  1315.5      61.054
  1316.0     48.7257
  1316.5     12.6145
  1317.0     1.82936
  1317.5     1.85796
  1318.0      1.8521
  1318.5     1.80913
  1319.0     1.80548
  1319.5     1.79894
  1320.0     1.77039
  1320.5     9.51739
  1321.0     19.2229
  1321.5     11.0195
  1322.0     2.66508
  1322.5     1.80415
  1323.0     15.8307
  1323.5     37.2063
  1324.0     25.2639
  1324.5     6.36475
  1325.0     1.82873
  1325.5      1.7968
  1326.0      1.8118
  1326.5     1.81188
  1327.0     1.77465
  1327.5     1.76916
  1328.0     1.72931
  1328.5     1.65729
  1329.0     1.65499
  1329.5     4.48374
  1330.0     8.60552
  1330.5     7.22547
  1331.0     2.83276
  1331.5     2.02074
  1332.0     9.40941
  1332.5     16.0165
  1333.0     9.89857
  1333.5     1.79851
  1334.0     1.60788
  1334.5     1.69024
  1335.0     1.71697
  1335.5     1.69003
  1336.0     1.61633
  1336.5     1.67273
  1337.0     1.64106
  1337.5     1.56889
  1338.0     1.61199
  1338.5     1.68355
  1339.0     1.67977
  1339.5     3.02042
  1340.0     4.34267
  1340.5     2.98931
  1341.0     1.90148
  1341.5      3.5023
  1342.0     7.22808
  1342.5     5.44166
  1343.0       2.365
  1343.5     1.58806
  1344.0     1.36389
  1344.5      1.3092
  1345.0     1.47174
  1345.5     1.50419
  1346.0     1.44766
  1346.5     1.40371
  1347.0       1.413
  1347.5     1.18304
  1348.0    0.903039
  1348.5    0.932214
  1349.0     1.15406
  1349.5     1.29497
  1350.0     1.08435
  1350.5    0.973875
  1351.0     1.53343
  1351.5      1.0973
  1352.0       1.098
  1352.5       1.233
  1353.0    0.944246
  1353.5    0.733402
  1354.0    0.598237
  1354.5    0.359028
  1355.0    0.299235
  1355.5    0.396644
  1356.0    0.501792
  1356.5    0.663969
  1357.0    0.515151
  1357.5    0.352817
  1358.0    0.377582
  1358.5     0.37135
  1359.0    0.360873
  1359.5    0.282349
  1360.0    0.320932
  1360.5    0.276618
  1361.0    0.119617
  1361.5    0.048225
  1362.0   0.0274692
  1362.5    0.108749
  1363.0    0.397265
  1363.5    0.564852
  1364.0    0.396351
  1364.5    0.129306
  1365.0   0.0917834
  1365.5    0.253666
  1366.0     3.19388
  1366.5     6.72151
  1367.0     4.05993
  1367.5     2.19981
  1368.0    0.367595
  1368.5    0.383572
  1369.0     5.46467
  1369.5     8.15932
  1370.0    0.667457
  1370.5    0.411559
  1371.0    0.563157
  1371.5     6.92026
  1372.0     4.20119
  1372.5     2.08531
  1373.0     0.57905
  1373.5    0.628874
  1374.0     1.87314
  1374.5     2.94159
  1375.0     2.95439
  1375.5      3.1417
  1376.0    0.673281
  1376.5    0.598643
  1377.0    0.572984
  1377.5    0.882507
  1378.0    0.916598
  1378.5    0.519401
  1379.0    0.487855
  1379.5    0.718041
  1380.0      0.5273
  1380.5    0.182074
  1381.0     0.19244
  1381.5     3.33459
  1382.0     7.76112
  1382.5     2.89291
  1383.0     1.15339
  1383.5     1.40547
  1384.0     4.51101
  1384.5     6.44851
  1385.0    0.605387
  1385.5    0.382626
  1386.0     1.10187
  1386.5     2.61475
  1387.0     6.74507
  1387.5     2.61765
  1388.0    0.300095
  1388.5    0.494245
  1389.0     1.03117
  1389.5      1.8827
  1390.0     1.96408
  1390.5     6.52412
  1391.0     7.62743
  1391.5     6.24985
  1392.0    0.759107
  1392.5    0.228861
  1393.0    0.540872
  1393.5    0.852942
  1394.0    0.962052
  1394.5     9.03889
  1395.0     1.98065
  1395.5    0.621771
  1396.0    0.481274
  1396.5    0.218664
  1397.0    0.540413
  1397.5      1.1904
  1398.0     8.27763
  1398.5     15.5289
  1399.0     8.95142
  1399.5    0.656016
  1400.0    0.275429
  1400.5    0.169639
  1401.0    0.377681
  1401.5     1.99865
  1402.0     27.4696
  1402.5     46.0587
  1403.0     7.34956
  1403.5     1.07315
  1404.0     2.65697
  1404.5      2.2776
  1405.0    0.493299
  1405.5     1.81979
  1406.0     6.25258
  1406.5     8.61171
  1407.0     1.92133
  1407.5     2.47939
  1408.0     11.6565
  1408.5     23.8899
  1409.0     6.02632
  1409.5     1.44695
  1410.0     17.9723
  1410.5     32.5103
  1411.0     18.0729
  1411.5     2.97949
  1412.0    0.836134
  1412.5     3.19057
  1413.0     57.1971
  1413.5     59.8172
  1414.0     12.8739
  1414.5     0.37228
  1415.0    0.471997
  1415.5     5.17394
  1416.0     35.2344
  1416.5     47.4578
  1417.0     13.2906
  1417.5    0.997571
  1418.0     39.2027
  1418.5    101.5476
  1419.0     16.8969
  1419.5     9.87072
  1420.0     6.52271
  1420.5    0.890774
  1421.0    0.995733
  1421.5     1.12155
  1422.0     14.6841
  1422.5     34.3573
  1423.0     18.7062
  1423.5     5.41814
  1424.0    0.815703
  1424.5     1.11903
  1425.0     1.11806
  1425.5    0.924436
  1426.0     3.14279
  1426.5     9.29044
  1427.0     5.11714
  1427.5     1.37257
  1428.0    0.832362
  1428.5     2.49206
  1429.0     9.12888
  1429.5     14.4738
  1430.0     5.33501
  1430.5     1.30028
  1431.0     1.00829
  1431.5    0.696386
  1432.0    0.613176
  1432.5     0.63302
  1433.0    0.909676
  1433.5     22.7914
  1434.0     139.269
  1434.5     162.118
  1435.0     184.398
  1435.5     95.0674
  1436.0     59.6142
  1436.5      16.617
  1437.0     19.0983
  1437.5     18.0421
  1438.0     9.34089
  1438.5     2.89479
  1439.0     4.04837
  1439.5     4.74756
  1440.0     11.6112
  1440.5     8.34661
  1441.0     3.20727
  1441.5     1.07677
  1442.0     2.01986
  1442.5      2.7271
  1443.0     1.79577
  1443.5     1.59604
  1444.0     1.26871
  1444.5     1.22593
  1445.0     1.11142
  1445.5    0.764193
  1446.0     2.72361
  1446.5     48.1419
  1447.0     60.2121
  1447.5     35.3534
  1448.0     1.42507
  1448.5     1.34195
  1449.0      1.3767
  1449.5     1.53408
  1450.0     1.55648
  1450.5    0.993312
  1451.0     8.12384
  1451.5     148.077
  1452.0     230.882
  1452.5     121.531
  1453.0     2.22479
  1453.5     1.43726
  1454.0     1.44595
  1454.5     1.36738
  1455.0     1.18412
  1455.5     5.32756
  1456.0     63.8399
  1456.5     109.546
  1457.0     48.6734
  1457.5     1.36452
  1458.0     1.36744
  1458.5     1.46048
  1459.0      1.4782
  1459.5     6.86374
  1460.0     139.364
  1460.5     238.096
  1461.0     151.543
  1461.5     3.29515
  1462.0      1.4119
  1462.5     1.38319
  1463.0     1.22635
  1463.5     1.41008
  1464.0     1.77865
  1464.5     1.84458
  1465.0     1.53603
  1465.5     2.05187
  1466.0     35.0972
  1466.5      58.194
  1467.0     29.6456
  1467.5     3.13733
  1468.0     2.08733
  1468.5     1.76904
  1469.0     24.8933
  1469.5     78.5359
  1470.0      153.04
  1470.5     49.4718
  1471.0     2.97036
  1471.5     4.75059
  1472.0     2.38885
  1472.5     1.00166
  1473.0     1.45783
  1473.5     14.8293
  1474.0     28.6893
  1474.5     19.1394
  1475.0     10.5496
  1475.5     16.7399
  1476.0     7.57821
  1476.5     12.7459
  1477.0     23.7865
  1477.5     34.1368
  1478.0     46.0825
  1478.5     93.8822
  1479.0     41.3223
  1479.5     36.1088
  1480.0     95.5631
  1480.5     52.8728
  1481.0      27.627
  1481.5     3.05671
  1482.0     1.13588
  1482.5     33.5034
  1483.0     138.316
  1483.5     180.599
  1484.0     69.2913
  1484.5     1.26836
  1485.0     1.32681
  1485.5     4.31396
  1486.0     44.9472
  1486.5     70.0091
  1487.0     33.3423
  1487.5     1.45599
  1488.0     57.1568
  1488.5      204.23
  1489.0     232.127
  1489.5     69.2827
  1490.0     3.66406
  1490.5     20.1545
  1491.0     30.6875
  1491.5     12.1412
  1492.0     1.44887
  1492.5     35.1515
  1493.0     85.3506
  1493.5     70.9944
  1494.0     16.9274
  1494.5      1.4289
  1495.0     1.39155
  1495.5     1.39658
  1496.0     1.39633
  1496.5     1.38393
  1497.0     1.43353
  1497.5     1.44909
  1498.0     1.41921
  1498.5     1.43365
  1499.0     1.44701
  1499.5     1.44633
  1500.0      3.0385
  1500.5     5.42583
  1501.0     4.42509
  1501.5     2.15383
  1502.0     4.62989
  1502.5     8.86666
  1503.0      5.8811
  1503.5     2.07238
  1504.0     1.35999
  1504.5     18.0996
  1505.0     406.852
  1505.5     858.162
  1506.0     475.198
  1506.5     206.455
  1507.0     272.399
  1507.5      122.63
  1508.0     20.7677
  1508.5     58.1302
  1509.0     73.3927
  1509.5     32.7488
  1510.0     2.30957
  1510.5     5.90027
  1511.0     17.2915
  1511.5     23.9552
  1512.0     11.0649
  1512.5     1.49231
  1513.0     1.96404
  1513.5     2.79267
  1514.0     5.01987
  1514.5     7.55883
  1515.0     5.52379
  1515.5     2.52323
  1516.0     1.59949
  1516.5     1.44171
  1517.0     1.48171
  1517.5     1.65093
  1518.0     55.0348
  1518.5     145.547
  1519.0     124.487
  1519.5     35.5858
  1520.0     1.45165
  1520.5     1.45272
  1521.0     1.45612
  1521.5     1.46024
  1522.0     1.48921
  1522.5     1.56557
  1523.0     1.91693
  1523.5     263.158
  1524.0     576.641
  1524.5     328.113
  1525.0     34.3779
  1525.5     1.44307
  1526.0     1.44692
  1526.5      1.5129
  1527.0     1.57515
  1527.5     1.54092
  1528.0     46.9489
  1528.5      158.84
  1529.0     177.909
  1529.5     65.0073
  1530.0     1.43746
  1530.5     1.43761
  1531.0      1.4351
  1531.5     1.43261
  1532.0     1.43159
  1532.5     160.561
  1533.0     475.626
  1533.5     458.629
  1534.0      146.06
  1534.5      1.4216
  1535.0     1.41878
  1535.5     1.41874
  1536.0     1.42028
  1536.5     1.42195
  1537.0     1.42581
  1537.5     1.43298
  1538.0     1.44972
  1538.5     2.13951
  1539.0     79.8087
  1539.5     164.694
  1540.0     85.5182
  1540.5     5.30156
  1541.0     1.90189
  1541.5     1.59201
  1542.0     1.47327
  1542.5     119.053
  1543.0     323.921
  1543.5     285.013
  1544.0     82.5086
  1544.5     2.07464
  1545.0     1.41453
  1545.5     5.35562
  1546.0     12.0504
  1546.5     10.8502
  1547.0     7.78768
  1547.5     8.35836
  1548.0     4.62801
  1548.5     1.41751
  1549.0     1.45787
  1549.5      22.606
  1550.0     48.9821
  1550.5     71.2339
  1551.0     94.3815
  1551.5     60.0611
  1552.0     21.7618
  1552.5     8.76899
  1553.0     3.43632
  1553.5     89.7484
  1554.0      238.33
  1554.5     221.144
  1555.0     81.9503
  1555.5     10.7933
  1556.0     1.81241
  1556.5     31.2323
  1557.0     62.5526
  1557.5     32.1122
  1558.0       2.226
  1558.5     1.39128
  1559.0     61.6453
  1559.5     196.112
  1560.0     206.691
  1560.5     71.5909
  1561.0     1.38615
  1561.5     1.38607
  1562.0     1.39474
  1562.5     55.6189
  1563.0     129.214
  1563.5     88.0326
  1564.0     17.0393
  1564.5     5.04748
  1565.0     185.211
  1565.5     383.421
  1566.0     206.798
  1566.5     15.5726
  1567.0     1.37496
  1567.5     1.37247
  1568.0     1.36827
  1568.5     1.36175
  1569.0     1.35168
  1569.5     29.3308
  1570.0     86.2739
  1570.5      85.554
  1571.0      28.415
  1571.5      1.2794
  1572.0     1.27265
  1572.5     1.27102
  1573.0     1.27432
  1573.5     1.28269
  1574.0     1.29661
  1574.5     1.31577
  1575.0     1.41868
  1575.5     5.73271
  1576.0     10.1395
  1576.5     5.92467
  1577.0     1.54657
  1577.5     5.87298
  1578.0     13.9912
  1578.5     12.4685
  1579.0     4.44455
  1579.5     1.29815
  1580.0      1.3034
  1580.5     1.30888
  1581.0     1.31444
  1581.5     1.31973
  1582.0     1.83794
  1582.5     161.329
  1583.0     641.511
  1583.5     812.011
  1584.0     385.998
  1584.5     229.153
  1585.0      269.15
  1585.5     105.756
  1586.0     13.3383
  1586.5     63.2733
  1587.0    102.9665
  1587.5     47.7572
  1588.0     1.58737
  1588.5     3.20152
  1589.0     13.5249
  1589.5     27.1502
  1590.0     23.2843
  1590.5     7.88117
  1591.0     2.72525
  1591.5     4.44908
  1592.0     3.86004
  1592.5     4.64839
  1593.0     7.17907
  1593.5     6.02612
  1594.0     2.66253
  1594.5     1.32806
  1595.0     1.32756
  1595.5     1.32679
  1596.0     1.39534
  1596.5     46.3521
  1597.0      145.15
  1597.5     151.577
  1598.0     52.2994
  1598.5     1.31395
  1599.0     1.30287
  1599.5     1.29133
  1600.0      1.2776
  1600.5      1.2629
  1601.0     1.26324
  1601.5     1.29272
  1602.0     1.87191
  1602.5     262.319
  1603.0     584.712
  1603.5     320.432
  1604.0     30.6655
  1604.5     1.47395
  1605.0     1.41825
  1605.5     1.63663
  1606.0      1.7366
  1606.5     1.45007
  1607.0     4.94397
  1607.5     115.429
  1608.0     229.964
  1608.5     112.177
  1609.0      2.7904
  1609.5     1.24333
  1610.0      1.2465
  1610.5     1.25076
  1611.0     1.25599
  1611.5     1.26139
  1612.0     67.2533
  1612.5     400.552
  1613.0     612.899
  1613.5     266.403
  1614.0     1.35731
  1614.5     1.28797
  1615.0     1.28744
  1615.5     1.28689
  1616.0     1.28704
  1616.5     1.28674
  1617.0     1.28668
  1617.5     1.28687
  1618.0      1.2866
  1618.5     5.45673
  1619.0      97.419
  1619.5     187.321
  1620.0     90.3467
  1620.5     1.96214
  1621.0     1.34304
  1621.5     1.32082
  1622.0     1.30072
  1622.5     4.38334
  1623.0     216.993
  1623.5     449.387
  1624.0     236.624
  1624.5     14.6349
  1625.0     1.85826
  1625.5     1.59276
  1626.0     1.39018
  1626.5     2.83629
  1627.0     4.54875
  1627.5     3.89851
  1628.0      3.2062
  1628.5     2.17173
  1629.0     1.28116
  1629.5     5.33423
  1630.0     12.7521
  1630.5     11.6363
  1631.0     38.2753
  1631.5      91.578
  1632.0      76.598
  1632.5     21.1867
  1633.0     1.25761
  1633.5     18.8501
  1634.0     44.8975
  1634.5     119.361
  1635.0     206.503
  1635.5     142.381
  1636.0     48.4989
  1636.5     14.1916
  1637.0     1.83768
  1637.5     1.24556
  1638.0     15.6408
  1638.5     81.7355
  1639.0     119.068
  1639.5     50.9819
  1640.0     1.23665
  1640.5      2.4775
  1641.0     32.0816
  1641.5     61.1096
  1642.0     30.2377
  1642.5     1.62852
  1643.0     1.20995
  1643.5     75.8618
  1644.0     213.687
  1644.5     206.774
  1645.0       80.99
  1645.5     11.1451
  1646.0      1.2207
  1646.5     1.31342
  1647.0     35.9273
  1647.5     127.657
  1648.0     144.381
  1648.5     54.0908
  1649.0     1.29002
  1649.5     82.2068
  1650.0     237.944
  1650.5     219.819
  1651.0     64.3128
  1651.5     1.21446
  1652.0     1.22725
  1652.5     1.23011
  1653.0     1.22475
  1653.5     1.20784
  1654.0     1.20968
  1654.5     9.34768
  1655.0      63.921
  1655.5    104.2642
  1656.0     47.0519
  1656.5     1.24254
  1657.0     1.21815
  1657.5     1.22959
  1658.0     6.13968
  1658.5     12.5248
  1659.0      8.5197
  1659.5     2.37194
  1660.0     1.38087
  1660.5    10.42454
  1661.0     21.8479
  1661.5     14.5168
  1662.0     3.35801
  1662.5     1.21171
  1663.0     1.21517
  1663.5     1.21604
  1664.0     1.21591
  1664.5     1.21145
  1665.0     1.18115
  1665.5     1.12804
  1666.0     1.12273
  1666.5     1.15673
  1667.0     1.18403
  1667.5     1.19977
  1668.0      5.3328
  1668.5     259.228
  1669.0     704.576
  1669.5     633.211
  1670.0     222.937
  1670.5     186.667
  1671.0     281.608
  1671.5     123.088
  1672.0     6.42011
  1672.5     36.2836
  1673.0     82.4848
  1673.5     77.6194
  1674.0     25.9786
  1674.5     1.38503
  1675.0     5.35216
  1675.5      12.262
  1676.0     22.6461
  1676.5     27.5809
  1677.0     12.4097
  1677.5     1.18097
  1678.0     1.18436
  1678.5     1.26311
  1679.0     1.81646
  1679.5     4.11927
  1680.0     7.13358
  1680.5     6.24764
  1681.0     2.76039
  1681.5     1.18641
  1682.0     1.18919
  1682.5     1.18918
  1683.0     1.90662
  1683.5     84.2947
  1684.0     167.791
  1684.5     92.1996
  1685.0     7.17237
  1685.5     1.81787
  1686.0     1.18559
  1686.5     1.18066
  1687.0     1.17182
  1687.5     1.16915
  1688.0     1.19079
  1688.5     1.43617
  1689.0     1.69733
  1689.5     52.6712
  1690.0     347.783
  1690.5     533.806
  1691.0     238.607
  1691.5     1.52428
  1692.0     1.17711
  1692.5     1.17088
  1693.0     1.17192
  1693.5     1.16817
  1694.0     1.16266
  1694.5     3.74093
  1695.0     113.038
  1695.5     227.518
  1696.0     113.715
  1696.5      3.7653
  1697.0     1.17269
  1697.5     1.15693
  1698.0     1.16076
  1698.5     1.16381
  1699.0     1.16268
  1699.5     1.15876
  1700.0      54.706
  1700.5     371.548
  1701.0     584.667
  1701.5     262.766
  1702.0     1.39869
  1702.5     1.15212
  1703.0     1.15091
  1703.5     1.15282
  1704.0     1.15459
  1704.5     1.15352
  1705.0     1.17804
  1705.5     1.20961
  1706.0     1.18414
  1706.5     1.17455
  1707.0     22.7453
  1707.5     111.145
  1708.0     156.908
  1708.5     64.2983
  1709.0     1.12273
  1709.5     1.13946
  1710.0     1.14221
  1710.5     1.13969
  1711.0     1.14162
  1711.5     43.6276
  1712.0     262.968
  1712.5     403.153
  1713.0     175.748
  1713.5     1.40191
  1714.0     1.12149
  1714.5     1.11891
  1715.0     1.13031
  1715.5     1.13312
  1716.0     1.12753
  1716.5     1.13744
  1717.0     1.20331
  1717.5      1.2838
  1718.0     1.29756
  1718.5     1.53934
  1719.0      1.9234
  1719.5       1.784
  1720.0      1.8373
  1720.5     50.6011
  1721.0     99.5715
  1721.5     52.3946
  1722.0     5.21823
  1722.5     2.43908
  1723.0      1.4563
  1723.5     3.42214
  1724.0     33.8848
  1724.5     139.248
  1725.0     202.058
  1725.5     91.3157
  1726.0     7.09334
  1726.5     3.11895
  1727.0     1.11591
  1727.5     9.90286
  1728.0      33.195
  1728.5     37.7955
  1729.0     14.6492
  1729.5     3.95567
  1730.0     15.5628
  1730.5     21.5023
  1731.0     9.59434
  1731.5     1.09491
  1732.0     1.15253
  1732.5     48.2668
  1733.0     111.351
  1733.5     64.4986
  1734.0      7.0224
  1734.5     18.9071
  1735.0     41.7374
  1735.5     50.6671
  1736.0     54.3847
  1736.5     25.0626
  1737.0     1.39365
  1737.5     9.61111
  1738.0     128.336
  1738.5     265.044
  1739.0     170.548
  1739.5     28.7412
  1740.0     1.08202
  1740.5     1.08442
  1741.0     1.05861
  1741.5     1.04736
  1742.0     28.2969
  1742.5     73.5463
  1743.0     60.3387
  1743.5     16.4159
  1744.0     4.44973
  1744.5     118.217
  1745.0     247.288
  1745.5     126.165
  1746.0     3.83878
  1746.5     1.01904
  1747.0    0.978709
  1747.5     1.02013
  1748.0     1.07573
  1748.5     1.09306
  1749.0     1.10875
  1749.5     6.72279
  1750.0     53.8006
  1750.5     96.4659
  1751.0     51.8874
  1751.5      5.5542
  1752.0     2.72211
  1752.5     15.1196
  1753.0     24.6186
  1753.5     12.2164
  1754.0     1.40812
  1754.5     1.06478
  1755.0     1.02642
  1755.5     1.03991
  1756.0     1.06378
  1756.5      1.0418
  1757.0      1.0087
  1757.5     1.01356
  1758.0     1.05339
  1758.5     1.07855
  1759.0     1.08199
  1759.5      1.0816
  1760.0     1.07759
  1760.5     1.05738
  1761.0     1.03692
  1761.5     1.05253
  1762.0     1.05524
  1762.5     1.03073
  1763.0     1.02282
  1763.5     1.04734
  1764.0     2.22013
  1764.5     127.411
  1765.0     480.358
  1765.5     460.488
  1766.0     168.047
  1766.5    102.1808
  1767.0     217.221
  1767.5      157.27
  1768.0     38.8591
  1768.5     10.6157
  1769.0     21.9704
  1769.5     54.8893
  1770.0     71.5554
  1770.5     30.7745
  1771.0     1.01698
  1771.5     1.27045
  1772.0     2.82992
  1772.5     6.82535
  1773.0      17.892
  1773.5      23.046
  1774.0     9.02582
  1774.5    0.978814
  1775.0     1.01716
  1775.5     1.00818
  1776.0     1.17518
  1776.5      1.6326
  1777.0     3.67198
  1777.5      6.5097
  1778.0     5.35786
  1778.5     1.90362
  1779.0    0.911378
  1779.5    0.989278
  1780.0     1.03627
  1780.5     55.0342
  1781.0    102.7748
  1781.5     64.2749
  1782.0     15.4645
  1782.5     2.16311
  1783.0     3.05701
  1783.5     2.02839
  1784.0     1.00318
  1784.5     1.03937
  1785.0     1.37387
  1785.5     1.59981
  1786.0     1.14185
  1786.5    0.952045
  1787.0     3.56422
  1787.5      207.24
  1788.0     463.816
  1788.5     231.255
  1789.0     9.28354
  1789.5      1.1711
  1790.0     1.01029
  1790.5    0.921185
  1791.0    0.892389
  1791.5     0.92613
  1792.0    0.924304
  1792.5     3.81597
  1793.0     75.4346
  1793.5     129.582
  1794.0     58.2269
  1794.5     2.03452
  1795.0    0.926549
  1795.5    0.934179
  1796.0    0.943908
  1796.5     0.90153
  1797.0    0.883401
  1797.5     0.89987
  1798.0     0.91146
  1798.5     29.0849
  1799.0     286.966
  1799.5      393.53
  1800.0     112.486
  1800.5    0.894906
  1801.0    0.664837
  1801.5    0.675661
  1802.0    0.713585
  1802.5    0.756203
  1803.0    0.866701
  1803.5    0.854168
  1804.0     0.85005
  1804.5    0.908119
  1805.0    0.909171
  1805.5    0.789969
  1806.0     9.75734
  1806.5     33.3322
  1807.0     66.4904
  1807.5      21.247
  1808.0    0.810181
  1808.5    0.863897
  1809.0    0.842434
  1809.5     0.84348
  1810.0    0.789962
  1810.5    0.653975
  1811.0    10.11544
  1811.5     108.271
  1812.0      147.99
  1812.5     31.4699
  1813.0    0.629456
  1813.5    0.714378
  1814.0    0.834492
  1814.5    0.851489
  1815.0    0.715416
  1815.5    0.586104
  1816.0    0.588352
  1816.5    0.668598
  1817.0    0.747433
  1817.5    0.779485
  1818.0    0.748959
  1818.5    0.673993
  1819.0    0.681607
  1819.5    0.657193
  1820.0    0.544373
  1820.5     1.65769
  1821.0      10.933
  1821.5     7.12967
  1822.0    0.960781
  1822.5    0.543398
  1823.0    0.696054
  1823.5    0.851539
  1824.0     0.91123
  1824.5     7.92857
  1825.0     49.0198
  1825.5     74.3204
  1826.0     13.3617
  1826.5    0.639405
  1827.0    0.767282
  1827.5    0.884335
  1828.0     1.00277
  1828.5    0.713494
  1829.0    0.674007
  1829.5     0.92087
  1830.0    0.678618
  1830.5    0.727822
  1831.0     1.19546
  1831.5     1.89483
  1832.0     1.90024
  1832.5     1.06536
  1833.0     1.28903
  1833.5     1.56099
  1834.0    0.630549
  1834.5     1.48939
  1835.0     1.17494
  1835.5     1.93395
  1836.0     1.14991
  1836.5     1.24782
  1837.0     1.97664
  1837.5     0.91674
  1838.0    0.620395
  1838.5    0.580674
  1839.0     0.57364
  1839.5     5.70556
  1840.0     1.02936
  1840.5      3.7671
  1841.0     2.32753
  1841.5    0.541103
  1842.0    0.557903
  1842.5    0.675558
  1843.0     4.34143
  1843.5     6.42854
  1844.0     3.28117
  1844.5    0.731493
  1845.0     2.58465
  1845.5      28.064
  1846.0     27.5979
  1846.5     3.47524
  1847.0    0.589546
  1847.5    0.559008
  1848.0    0.573767
  1848.5    0.593513
  1849.0    0.585837
  1849.5     1.08592
  1850.0     5.78877
  1850.5     3.48914
  1851.0     3.45346
  1851.5      0.7568
  1852.0     31.1338
  1852.5     32.9094
  1853.0     3.58789
  1853.5    0.735522
  1854.0    0.621814
  1854.5    0.607735
  1855.0    0.755158
  1855.5     3.89985
  1856.0     4.60501
  1856.5     1.07467
  1857.0    0.649963
  1857.5    0.655662
  1858.0     4.62351
  1858.5     15.2149
  1859.0     8.25655
  1859.5     1.18576
  1860.0    0.682218
  1860.5    0.677881
  1861.0    0.698917
  1861.5    0.741118
  1862.0    0.809328
  1862.5     0.80718
  1863.0    0.769906
  1863.5    0.737403
  1864.0    0.731904
  1864.5    0.751265
  1865.0    0.737677
  1865.5    0.770704
  1866.0    0.832102
  1866.5    0.812606
  1867.0     0.76117
  1867.5     0.77525
  1868.0    0.780899
  1868.5    0.717566
  1869.0    0.671192
  1869.5    0.743034
  1870.0    0.740023
  1870.5    0.754718
  1871.0    0.793119
  1871.5    0.786147
  1872.0    0.734788
  1872.5    0.839456
  1873.0     0.85846
  1873.5    0.809353
  1874.0     3.66937
  1874.5     27.8548
  1875.0     12.3849
  1875.5     1.19093
  1876.0     6.59294
  1876.5     8.04941
  1877.0     1.77608
  1877.5     1.42337
  1878.0     1.14438
  1878.5       2.362
  1879.0     12.0164
  1879.5     22.3608
  1880.0     16.7189
  1880.5     2.02389
  1881.0     0.83776
  1881.5    0.854389
  1882.0     1.26838
  1882.5     2.02867
  1883.0     4.54305
  1883.5     5.53608
  1884.0     1.51961
  1884.5     1.07402
  1885.0    0.818752
  1885.5    0.866336
  1886.0    0.845846
  1886.5    0.865144
  1887.0     1.00579
  1887.5     1.21569
  1888.0     2.49289
  1888.5     4.16782
  1889.0     2.88687
  1889.5     1.13764
  1890.0    0.975204
  1890.5     1.05364
  1891.0      12.376
  1891.5     22.4479
  1892.0     5.58223
  1892.5    0.992827
  1893.0    0.849156
  1893.5    0.930431
  1894.0      1.0314
  1894.5     1.24574
  1895.0     1.30575
  1895.5     1.04011
  1896.0    0.944757
  1896.5    0.948748
  1897.0    0.877246
  1897.5    0.982511
  1898.0     1.28677
  1898.5      18.471
  1899.0     11.5494
  1899.5     1.47826
  1900.0     1.11241
  1900.5     1.05706
  1901.0     0.99866
  1901.5    0.979931
  1902.0    0.941279
  1902.5     1.03435
  1903.0     1.18002
  1903.5     1.04579
  1904.0     4.94571
  1904.5     15.6078
  1905.0     5.57925
  1905.5     1.34639
  1906.0     1.12981
  1906.5     1.16504
  1907.0     1.19571
  1907.5     1.03067
  1908.0    0.953426
  1908.5     1.01767
  1909.0     1.11093
  1909.5     1.04439
  1910.0     1.01692
  1910.5     5.23528
  1911.0     26.9716
  1911.5     18.8102
  1912.0     17.3829
  1912.5     1.10931
  1913.0     1.08229
  1913.5     1.26341
  1914.0     1.26688
  1914.5     1.15227
  1915.0     1.09134
  1915.5     1.00332
  1916.0     1.17695
  1916.5     1.25716
  1917.0     1.16191
  1917.5     1.02544
  1918.0    0.982439
  1918.5     8.53892
  1919.0     32.4707
  1919.5     17.5369
  1920.0     1.89606
  1920.5     1.44193
  1921.0     1.45943
  1921.5     1.26099
  1922.0     1.02609
  1922.5     1.01766
  1923.0     1.00168
  1923.5      1.1522
  1924.0     1.69113
  1924.5     16.4996
  1925.0     130.846
  1925.5    101.7792
  1926.0     5.74291
  1926.5     1.16573
  1927.0     1.37569
  1927.5     1.22362
  1928.0     1.06966
  1928.5     1.33399
  1929.0     1.24662
  1929.5     1.04071
  1930.0     1.27876
  1930.5     1.35157
  1931.0     1.30887
  1931.5      1.2785
  1932.0     1.21963
  1932.5     1.06634
  1933.0      1.1504
  1933.5     1.24031
  1934.0      1.5153
  1934.5     14.6155
  1935.0     52.4464
  1935.5     26.9202
  1936.0     1.67812
  1936.5      1.3729
  1937.0     1.15716
  1937.5     1.05929
  1938.0      1.2635
  1938.5     1.17236
  1939.0     4.75877
  1939.5     19.8801
  1940.0     59.6179
  1940.5     40.8626
  1941.0     1.56837
  1941.5     1.31907
  1942.0     1.16825
  1942.5    0.991061
  1943.0     1.00433
  1943.5     1.24909
  1944.0     1.18384
  1944.5      1.2707
  1945.0     1.25713
  1945.5     1.06269
  1946.0     1.08627
  1946.5     1.03705
  1947.0     1.21375
  1947.5     1.17117
  1948.0     1.16132
  1948.5     1.21515
  1949.0     1.12359
  1949.5     1.08817
  1950.0     1.08478
  1950.5     1.20376
  1951.0     3.55008
  1951.5     16.0301
  1952.0     21.8988
  1952.5     8.20975
  1953.0     2.19734
  1953.5     1.92435
  1954.0     1.79183
  1954.5     1.52898
  1955.0     3.27276
  1955.5     15.9978
  1956.0     24.3235
  1956.5     15.5023
  1957.0     5.00717
  1957.5     2.78164
  1958.0     1.88532
  1958.5     2.51034
  1959.0     7.59181
  1959.5     10.9495
  1960.0     7.23286
  1960.5     0.89821
  1961.0     1.81905
  1961.5     5.51909
  1962.0     8.53951
  1962.5     4.30973
  1963.0     1.19792
  1963.5     7.92205
  1964.0     23.9225
  1964.5     28.1694
  1965.0    10.46007
  1965.5     1.17626
  1966.0     1.13528
  1966.5     1.01891
  1967.0      4.4316
  1967.5     14.1265
  1968.0     16.1893
  1968.5     7.26607
  1969.0     1.69661
  1969.5     30.3898
  1970.0     80.7268
  1970.5     65.1393
  1971.0     15.6088
  1971.5     1.23947
  1972.0     1.16572
  1972.5     1.16098
  1973.0     8.26569
  1973.5     18.1131
  1974.0     11.8573
  1974.5     16.2404
  1975.0     36.6196
  1975.5     24.5914
  1976.0     5.03764
  1976.5     39.5261
  1977.0    100.6781
  1977.5     75.2353
  1978.0      18.512
  1978.5    0.885024
  1979.0    0.865027
  1979.5      1.0904
  1980.0        1.26
  1980.5     1.10031
  1981.0    0.927233
  1981.5    0.848396
  1982.0    0.851547
  1982.5    0.898161
  1983.0     1.67654
  1983.5     23.0685
  1984.0     45.4696
  1984.5     22.2532
  1985.0     1.14359
  1985.5    0.928566
  1986.0    0.840204
  1986.5    0.947218
  1987.0     1.14236
  1987.5     1.02499
  1988.0    0.867544
  1988.5     1.88556
  1989.0     3.73609
  1989.5     3.34213
  1990.0     1.72831
  1990.5     1.03493
  1991.0    0.930695
  1991.5      1.1848
  1992.0     3.95025
  1992.5     6.58972
  1993.0     4.12162
  1993.5     1.29737
  1994.0     1.02588
  1994.5    0.925954
  1995.0     2.64786
  1995.5     2.86808
  1996.0     2.82592
  1996.5     2.96127
  1997.0     3.06217
  1997.5     3.17667
  1998.0      3.6425
  1998.5     3.64637
  1999.0     3.66519
  1999.5     4.46016
  2000.0     94.6576
  2000.5     296.882
  2001.0     309.178
  2001.5     109.632
  2002.0     9.97302
  2002.5     27.1084
  2003.0     85.9101
  2003.5     105.638
  2004.0     34.3532
  2004.5     5.63263
  2005.0     6.04693
  2005.5     8.15318
  2006.0    10.52811
  2006.5     31.4758
  2007.0     44.9226
  2007.5     29.8089
  2008.0     4.16585
  2008.5     3.79019
  2009.0     3.31761
  2009.5     5.29412
  2010.0     6.96936
  2010.5     6.65557
  2011.0     13.4458
  2011.5     21.3881
  2012.0     14.3282
  2012.5     7.07814
  2013.0     6.35053
  2013.5     5.42942
  2014.0      4.8699
  2014.5       5.874
  2015.0      5.7773
  2015.5     5.39737
  2016.0     5.75523
  2016.5     5.66246
  2017.0      8.2187
  2017.5     10.8301
  2018.0     7.86989
  2018.5     19.6833
  2019.0     73.7984
  2019.5    101.4183
  2020.0     45.0188
  2020.5     4.60578
  2021.0     4.40178
  2021.5     4.23208
  2022.0     4.02907
  2022.5     4.02559
  2023.0     4.22482
  2023.5     4.16854
  2024.0     4.89139
  2024.5     5.97899
  2025.0     4.71376
  2025.5     3.32638
  2026.0     2.85815
  2026.5     3.87625
  2027.0     276.486
  2027.5     594.947
  2028.0     331.761
  2028.5     31.9427
  2029.0     2.90681
  2029.5     2.67034
  2030.0     2.61545
  2030.5     2.73952
  2031.0     2.77405
  2031.5     2.94518
  2032.0     3.10649
  2032.5     3.16742
  2033.0    10.48962
  2033.5     142.055
  2034.0     273.765
  2034.5      132.74
  2035.0     3.64094
  2035.5     2.58536
  2036.0     2.45978
  2036.5     2.45187
  2037.0     2.45023
  2037.5      2.4769
  2038.0     2.54774
  2038.5     2.55755
  2039.0     2.43394
  2039.5      2.5218
  2040.0      2.8069
  2040.5     165.413
  2041.0     569.267
  2041.5     622.215
  2042.0     213.403
  2042.5     2.64008
  2043.0     2.53617
  2043.5     2.57229
  2044.0     2.61813
  2044.5     2.61641
  2045.0     2.59631
  2045.5      2.5824
  2046.0     2.59581
  2046.5     2.54433
  2047.0     2.68107
  2047.5     2.99085
  2048.0       3.185
  2048.5     3.43597
  2049.0     10.5871
  2049.5      110.91
  2050.0     186.187
  2050.5     82.4332
  2051.0     4.33262
  2051.5     3.91813
  2052.0      4.9506
  2052.5     4.69217
  2053.0     4.12212
  2053.5     5.28365
  2054.0     5.52234
  2054.5     4.43372
  2055.0     4.94987
  2055.5     48.2731
  2056.0     265.035
  2056.5     344.535
  2057.0     164.509
  2057.5     4.71707
  2058.0     4.79185
  2058.5     3.80425
  2059.0     4.01055
  2059.5     3.37808
  2060.0     2.72493
  2060.5     2.96837
  2061.0      3.1326
  2061.5     3.32319
  2062.0     4.21004
  2062.5      4.1033
  2063.0     4.51839
  2063.5     4.87408
  2064.0     4.20768
  2064.5     4.27322
  2065.0      4.6529
  2065.5     5.31206
  2066.0     4.68819
  2066.5     27.2768
  2067.0     87.7402
  2067.5      92.541
  2068.0     38.9904
  2068.5     4.16081
  2069.0     4.15109
  2069.5     4.13766
  2070.0     4.14999
  2070.5     4.12509
  2071.0     4.17913
  2071.5     4.47064
  2072.0     26.7666
  2072.5       174.9
  2073.0     289.366
  2073.5     130.285
  2074.0     4.97531
  2074.5     3.27999
  2075.0     3.39086
  2075.5     3.33275
  2076.0     3.04906
  2076.5     2.99799
  2077.0     3.02008
  2077.5      3.1069
  2078.0     3.04968
  2078.5     2.72711
  2079.0     2.56535
  2079.5     2.53534
  2080.0     2.50292
  2080.5     2.48509
  2081.0     2.52892
  2081.5     2.56275
  2082.0     2.58081
  2082.5     2.61351
  2083.0     2.70968
  2083.5     2.71358
  2084.0     2.69537
  2084.5     2.85645
  2085.0     3.52814
  2085.5     39.1899
  2086.0     78.4585
  2086.5      41.796
  2087.0      4.1481
  2087.5      2.6227
  2088.0     2.56555
  2088.5     2.60803
  2089.0     2.59818
  2089.5     2.57594
  2090.0     11.5464
  2090.5     88.3421
  2091.0     155.399
  2091.5     77.4292
  2092.0     5.68442
  2092.5     2.47036
  2093.0     2.46405
  2093.5     2.64174
  2094.0     2.66667
  2094.5     2.43906
  2095.0     2.36267
  2095.5      2.3626
  2096.0     2.33814
  2096.5     2.31499
  2097.0     2.33393
  2097.5     2.32339
  2098.0     2.44618
  2098.5     2.80333
  2099.0     2.66559
  2099.5     2.32857
  2100.0      3.0343
  2100.5     5.39961
  2101.0     8.23769
  2101.5     7.94948
  2102.0     5.85968
  2102.5     8.20508
  2103.0       17.03
  2103.5     20.0781
  2104.0     9.42614
  2104.5     3.58198
  2105.0     8.88419
  2105.5     21.3974
  2106.0      42.478
  2106.5     62.6737
  2107.0     53.9742
  2107.5     19.4616
  2108.0     2.27786
  2108.5     2.27364
  2109.0     12.3961
  2109.5     27.5696
  2110.0     44.2332
  2110.5     59.7968
  2111.0     91.2403
  2111.5     124.899
  2112.0     67.9757
  2112.5     8.47737
  2113.0     2.24804
  2113.5      2.2166
  2114.0     2.21898
  2114.5     2.25976
  2115.0     25.5827
  2115.5     54.1704
  2116.0     33.4639
  2116.5     6.13353
  2117.0       79.73
  2117.5     185.669
  2118.0     126.892
  2118.5     25.3866
  2119.0     2.60162
  2119.5     2.32929
  2120.0     2.44115
  2120.5     2.38453
  2121.0     2.26329
  2121.5     2.22598
  2122.0     2.19122
  2122.5     23.5675
  2123.0     65.7864
  2123.5     63.7634
  2124.0      27.777
  2124.5     117.544
  2125.0     222.789
  2125.5     109.025
  2126.0     3.27952
  2126.5     2.15143
  2127.0     3.11546
  2127.5       8.365
  2128.0     11.8193
  2128.5     6.43728
  2129.0     2.19212
  2129.5     2.15508
  2130.0     2.15047
  2130.5     2.15047
  2131.0     6.12308
  2131.5     15.3048
  2132.0      51.652
  2132.5     85.0858
  2133.0     47.8493
  2133.5     7.17195
  2134.0       2.129
  2134.5     2.12472
  2135.0     2.13758
  2135.5     2.25051
  2136.0     2.30893
  2136.5     2.19624
  2137.0     2.12097
  2137.5     2.11892
  2138.0     2.12331
  2138.5     2.13414
  2139.0     2.14424
  2139.5     2.14005
  2140.0     2.12564
  2140.5     2.11437
  2141.0     2.11089
  2141.5     2.10961
  2142.0     2.11369
  2142.5       2.131
  2143.0     2.13903
  2143.5     2.12274
  2144.0     2.11873
  2144.5     2.13108
  2145.0     2.11905
  2145.5     2.11767
  2146.0     2.12839
  2146.5     2.12225
  2147.0     2.13044
  2147.5     2.15104
  2148.0      2.1861
  2148.5     2.19795
  2149.0     2.17312
  2149.5     2.74394
  2150.0     188.251
  2150.5     509.114
  2151.0     440.465
  2151.5     124.705
  2152.0     4.84999
  2152.5     13.5956
  2153.0     74.6703
  2153.5     180.732
  2154.0     176.281
  2154.5      62.372
  2155.0     5.37629
  2155.5     3.15056
  2156.0     3.81157
  2156.5     7.95292
  2157.0     8.88642
  2157.5     45.4255
  2158.0       89.42
  2158.5     49.4175
  2159.0     5.75693
  2159.5     2.37059
  2160.0     2.27416
  2160.5     2.29916
  2161.0     2.38902
  2161.5     3.28437
  2162.0     4.90518
  2162.5     4.58358
  2163.0     12.1545
  2163.5     27.0795
  2164.0     24.3282
  2164.5     8.46517
  2165.0      2.1286
  2165.5      2.1312
  2166.0     2.17994
  2166.5     2.29686
  2167.0     2.36441
  2167.5     2.26757
  2168.0     2.36191
  2168.5     3.31615
  2169.0     3.88327
  2169.5     3.06226
  2170.0     4.20232
  2170.5     62.1151
  2171.0     129.967
  2171.5      78.457
  2172.0     11.7693
  2172.5     2.44458
  2173.0     2.37337
  2173.5     2.26179
  2174.0      2.5749
  2174.5     2.69866
  2175.0     2.35515
  2175.5     2.42492
  2176.0     3.02015
  2176.5     2.93597
  2177.0     2.41318
  2177.5     2.39827
  2178.0     2.47552
  2178.5     3.27448
  2179.0     5.08637
  2179.5     122.575
  2180.0      345.18
  2180.5     320.908
  2181.0     98.5018
  2181.5     2.03865
  2182.0     2.03666
  2182.5     2.24288
  2183.0     3.25347
  2183.5     3.79227
  2184.0     3.09969
  2184.5     3.60868
  2185.0     4.03612
  2185.5     2.78768
  2186.0     2.01975
  2186.5     21.5363
  2187.0     110.848
  2187.5     162.235
  2188.0     70.6969
  2188.5     2.55754
  2189.0     2.51238
  2189.5     2.60363
  2190.0     2.54398
  2190.5     2.63058
  2191.0     2.38406
  2191.5     2.03424
  2192.0     2.00592
  2192.5     2.01012
  2193.0     2.00463
  2193.5     2.02506
  2194.0     2.44789
  2194.5     5.25568
  2195.0     238.739
  2195.5     513.422
  2196.0     282.151
  2196.5     22.2762
  2197.0     2.26752
  2197.5     2.50087
  2198.0     3.66016
  2198.5     4.05744
  2199.0      3.4312
  2199.5     3.71988
  2200.0     4.42005
  2200.5     4.12547
  2201.0     3.22949
  2201.5     2.88606
  2202.0     3.04815
  2202.5     3.03137
  2203.0     2.73411
  2203.5     2.52999
  2204.0     2.66306
  2204.5     44.7924
  2205.0     123.089
  2205.5     118.811
  2206.0     39.1196
  2206.5     2.50698
  2207.0     2.41861
  2207.5     2.39571
  2208.0     2.20504
  2208.5     2.00607
  2209.0     2.00826
  2209.5     2.02786
  2210.0     2.13155
  2210.5     2.25909
  2211.0     2.23388
  2211.5     5.47371
  2212.0     195.987
  2212.5         410
  2213.0     224.488
  2213.5     18.8954
  2214.0      2.1115
  2214.5     2.38096
  2215.0     2.59129
  2215.5     2.96613
  2216.0     3.28964
  2216.5     2.95916
  2217.0      2.4257
  2217.5      2.1578
  2218.0     2.14651
  2218.5     2.15241
  2219.0     2.07389
  2219.5     2.06908
  2220.0     2.11302
  2220.5     2.25957
  2221.0     2.65829
  2221.5     2.91967
  2222.0      2.6313
  2222.5     2.23855
  2223.0     2.16439
  2223.5     2.18478
  2224.0     24.2678
  2224.5      79.774
  2225.0     90.3324
  2225.5     34.4664
  2226.0     2.48335
  2226.5     2.81542
  2227.0     3.05947
  2227.5     2.70407
  2228.0       2.286
  2228.5     2.17965
  2229.0      2.1723
  2229.5     2.11651
  2230.0     2.12696
  2230.5     57.4891
  2231.0      182.48
  2231.5     191.247
  2232.0     68.2119
  2232.5     3.04572
  2233.0     2.77626
  2233.5     2.82879
  2234.0     2.67403
  2234.5     2.41266
  2235.0     2.37708
  2235.5     2.50317
  2236.0      2.8539
  2236.5     2.97549
  2237.0     2.75873
  2237.5     2.91089
  2238.0     3.07075
  2238.5     2.61969
  2239.0     2.25009
  2239.5     2.53228
  2240.0      2.9171
  2240.5     2.83119
  2241.0     2.82288
  2241.5     2.96928
  2242.0     2.70438
  2242.5     2.50255
  2243.0     2.61351
  2243.5     3.13652
  2244.0     3.64755
  2244.5     3.09972
  2245.0     2.64548
  2245.5     29.9615
  2246.0      58.505
  2246.5     31.8878
  2247.0      5.8814
  2247.5     3.88688
  2248.0     2.64803
  2248.5     2.25205
  2249.0      2.4671
  2249.5     2.73947
  2250.0     3.02438
  2250.5     3.28603
  2251.0     26.5915
  2251.5     86.4855
  2252.0     97.8381
  2252.5     37.5713
  2253.0     3.04935
  2253.5     3.39337
  2254.0     4.16786
  2254.5     4.08429
  2255.0     3.54664
  2255.5     3.69353
  2256.0     3.98423
  2256.5     4.35722
  2257.0     4.65538
  2257.5     4.03748
  2258.0     3.43399
  2258.5     3.11334
  2259.0     2.66317
  2259.5     2.68573
  2260.0     3.22164
  2260.5     4.20018
  2261.0     4.90121
  2261.5     5.40811
  2262.0      6.1732
  2262.5     5.09514
  2263.0     3.35601
  2263.5     3.61694
  2264.0     4.83331
  2264.5     5.49723
  2265.0     4.60125
  2265.5     2.98543
  2266.0     2.26227
  2266.5     2.24653
  2267.0     2.67096
  2267.5     3.73906
  2268.0     5.82378
  2268.5     16.7215
  2269.0     27.0734
  2269.5     15.9471
  2270.0     4.60977
  2270.5     4.02521
  2271.0     3.40596
  2271.5     3.66111
  2272.0      4.9806
  2272.5     5.03118
  2273.0     3.89208
  2273.5     16.3295
  2274.0     39.7093
  2274.5      35.895
  2275.0     14.6715
  2275.5     8.38902
  2276.0     8.29796
  2276.5     5.82801
  2277.0     4.43953
  2277.5     4.18805
  2278.0     3.35156
  2278.5     2.85157
  2279.0     2.60909
  2279.5     2.24638
  2280.0     2.80945
  2280.5     5.13702
  2281.0      6.5388
  2281.5     4.70844
  2282.0     3.78455
  2282.5      6.1701
  2283.0     7.52147
  2283.5     6.84798
  2284.0     6.28539
  2284.5       5.806
  2285.0     5.58894
  2285.5      4.7292
  2286.0     3.29491
  2286.5     2.84129
  2287.0     3.09218
  2287.5     3.21208
  2288.0     3.25503
  2288.5     3.30269
  2289.0      4.8792
  2289.5     7.96229
  2290.0     8.73953
  2290.5     6.28985
  2291.0     4.24337
  2291.5     3.77482
  2292.0     4.64663
  2292.5     5.40487
  2293.0      5.2378
  2293.5     8.93767
  2294.0     12.4003
  2294.5     9.00241
  2295.0      6.2756
  2295.5     6.79825
  2296.0     6.67325
  2296.5     5.27266
  2297.0     3.54262
  2297.5     4.58131
  2298.0     12.3293
  2298.5      19.226
  2299.0     15.2263
  2299.5     8.15106
  2300.0     6.76595
  2300.5     7.80189
  2301.0     7.07373
  2301.5     5.01938
  2302.0      5.0772
  2302.5     5.23965
  2303.0     5.17476
  2303.5     6.42495
  2304.0       8.048
  2304.5     8.59651
  2305.0     7.13167
  2305.5     5.12043
  2306.0     4.57213
  2306.5     5.65107
  2307.0     7.13055
  2307.5     7.18278
  2308.0     5.24773
  2308.5     3.67522
  2309.0     3.96955
  2309.5     4.44182
  2310.0     3.69334
  2310.5     2.58047
  2311.0     2.19104
  2311.5     2.87496
  2312.0     3.51987
  2312.5       2.964
  2313.0     2.09483
  2313.5     1.81056
  2314.0     1.96333
  2314.5     2.12849
  2315.0     2.53807
  2315.5      4.4769
  2316.0      9.6436
  2316.5     17.2901
  2317.0     21.7305
  2317.5     19.9191
  2318.0     17.4289
  2318.5     13.9064
  2319.0     9.78829
  2319.5     8.08763
  2320.0     8.06763
  2320.5     8.22914
  2321.0     8.85229
  2321.5    10.54396
  2322.0     11.3871
  2322.5    10.30052
  2323.0     9.99887
  2323.5     9.53354
  2324.0     7.08495
  2324.5     6.22659
  2325.0     7.57372
  2325.5     7.45741
  2326.0     5.61556
  2326.5     4.37393
  2327.0     3.34488
  2327.5     4.38006
  2328.0     7.91424
  2328.5     9.45848
  2329.0     6.92554
  2329.5     4.22701
  2330.0     3.45977
  2330.5     4.45447
  2331.0     7.03561
  2331.5     8.40263
  2332.0     7.53264
  2332.5     5.60349
  2333.0     4.68006
  2333.5     5.24649
  2334.0     6.04023
  2334.5     6.82445
  2335.0     7.89376
  2335.5     8.32441
  2336.0     7.21514
  2336.5     5.52835
  2337.0     4.58688
  2337.5     5.92821
  2338.0      9.8884
  2338.5     11.5749
  2339.0     10.4812
  2339.5     13.3885
  2340.0     18.3776
  2340.5     18.6956
  2341.0     16.5308
  2341.5      17.303
  2342.0     15.8888
  2342.5     9.81483
  2343.0     7.99035
  2343.5     8.85148
  2344.0       9.003
  2344.5     11.3871
  2345.0     13.9406
  2345.5     12.9655
  2346.0    10.26277
  2346.5    10.24383
  2347.0     13.4048
  2347.5     16.4565
  2348.0     16.2987
  2348.5     13.0487
  2349.0     12.8753
  2349.5     15.2288
  2350.0     18.8431
  2350.5      20.301
  2351.0     19.5945
  2351.5     25.8582
  2352.0     36.7548
  2352.5     34.6047
  2353.0     20.7869
  2353.5     15.2258
  2354.0     10.9722
  2354.5     7.30834
  2355.0    10.19791
  2355.5     16.1377
  2356.0     18.1985
  2356.5     14.9786
  2357.0    10.32749
  2357.5     9.62499
  2358.0     16.0153
  2358.5     25.3078
  2359.0     21.6538
  2359.5    10.02786
  2360.0     4.06065
  2360.5     3.05692
  2361.0     5.42541
  2361.5     9.65385
  2362.0     10.9435
  2362.5     6.77457
  2363.0     5.05674
  2363.5     13.2952
  2364.0     21.7948
  2364.5     17.5048
  2365.0     8.10875
  2365.5     4.69649
  2366.0     6.15951
  2366.5     9.87896
  2367.0     17.1803
  2367.5     23.5986
  2368.0     19.1207
  2368.5     16.8663
  2369.0     19.3959
  2369.5     21.5912
  2370.0     33.9479
  2370.5     53.9684
  2371.0      66.248
  2371.5     60.4846
  2372.0     42.7575
  2372.5     26.9096
  2373.0     19.7924
  2373.5      14.452
  2374.0     10.7607
  2374.5    10.04298
  2375.0     9.19759
  2375.5     11.0173
  2376.0     20.8774
  2376.5     31.9595
  2377.0     28.1669
  2377.5     33.4927
  2378.0     47.5517
  2378.5     36.5414
  2379.0      17.153
  2379.5     12.1525
  2380.0     18.0857
  2380.5     18.7598
  2381.0     13.5971
  2381.5     7.53222
  2382.0     5.82291
  2382.5     17.1294
  2383.0     45.9312
  2383.5     68.4838
  2384.0     60.6547
  2384.5     30.3979
  2385.0     12.2353
  2385.5     24.0536
  2386.0     42.7641
  2386.5     36.4725
  2387.0     19.2456
  2387.5     20.8154
  2388.0      37.942
  2388.5     41.4827
  2389.0     21.9088
  2389.5    10.31475
  2390.0     13.5697
  2390.5     13.7424
  2391.0     32.7229
  2391.5     58.3736
  2392.0      56.849
  2392.5     27.9491
  2393.0     9.39872
  2393.5     10.8687
  2394.0     14.2157
  2394.5     17.0872
  2395.0     14.7488
  2395.5     11.0164
  2396.0     19.0275
  2396.5     42.5373
  2397.0     62.2399
  2397.5     49.0729
  2398.0     24.1115
  2398.5       12.27
  2399.0     8.70204
  2399.5     13.8655
  2400.0     24.6869
  2400.5     29.1697
  2401.0     18.5369
  2401.5    10.40674
  2402.0     9.48066
  2402.5     8.14579
  2403.0     7.60853
  2403.5     23.5063
  2404.0     55.6308
  2404.5     72.8526
  2405.0      42.498
  2405.5     17.7606
  2406.0      32.122
  2406.5     52.7375
  2407.0     57.7531
  2407.5     50.6282
  2408.0      39.956
  2408.5     23.0807
  2409.0     30.3653
  2409.5     55.1052
  2410.0     48.5577
  2410.5     22.9339
  2411.0      12.141
  2411.5     25.8746
  2412.0     38.7314
  2412.5     27.9409
  2413.0     16.9401
  2413.5     34.9023
  2414.0     60.5156
  2414.5     58.1609
  2415.0     43.9335
  2415.5     79.1567
  2416.0     133.893
  2416.5     94.1446
  2417.0     33.6749
  2417.5     24.1244
  2418.0     74.8861
  2418.5     138.561
  2419.0     160.969
  2419.5     115.645
  2420.0     54.4513
  2420.5      17.303
  2421.0     11.2325
  2421.5     20.5594
  2422.0     25.6635
  2422.5     18.8043
  2423.0     10.9974
  2423.5     29.8752
  2424.0     59.0852
  2424.5     62.2727
  2425.0     36.6069
  2425.5      19.268
  2426.0     42.6968
  2426.5      65.298
  2427.0     48.1474
  2427.5     20.9138
  2428.0     7.77417
  2428.5     8.80642
  2429.0    10.15234
  2429.5     12.1164
  2430.0     11.3505
  2430.5     9.48781
  2431.0     8.08662
  2431.5     7.71177
  2432.0     15.0356
  2432.5      44.082
  2433.0     72.6749
  2433.5     58.0586
  2434.0     39.4261
  2434.5     82.6316
  2435.0     193.643
  2435.5     288.944
  2436.0     263.864
  2436.5     174.292
  2437.0     86.5022
  2437.5     31.5663
  2438.0     11.5073
  2438.5     11.0128
  2439.0     9.39547
  2439.5     8.46461
  2440.0      8.4418
  2440.5     8.47632
  2441.0     7.71511
  2441.5     9.39855
  2442.0     21.6338
  2442.5     40.3246
  2443.0     40.9835
  2443.5     28.0605
  2444.0      15.912
  2444.5     16.0668
  2445.0     35.6609
  2445.5      124.81
  2446.0     204.157
  2446.5     201.301
  2447.0     164.492
  2447.5     146.913
  2448.0      119.92
  2448.5     53.5571
  2449.0     27.7336
  2449.5     61.8314
  2450.0     129.402
  2450.5     190.679
  2451.0      222.21
  2451.5     219.705
  2452.0      144.48
  2452.5     62.1306
  2453.0     30.1471
  2453.5     64.3617
  2454.0     130.898
  2454.5     162.578
  2455.0     110.401
  2455.5     46.9238
  2456.0     17.9226
  2456.5      20.258
  2457.0     17.4583
  2457.5     13.3281
  2458.0     11.5739
  2458.5     13.1504
  2459.0     16.7839
  2459.5     19.1897
  2460.0     16.2912
  2460.5     14.6299
  2461.0     14.7216
  2461.5     45.5624
  2462.0     128.519
  2462.5     234.613
  2463.0     239.437
  2463.5     149.998
  2464.0     84.0638
  2464.5     53.2955
  2465.0     34.6435
  2465.5     19.2089
  2466.0     22.8854
  2466.5     20.4525
  2467.0     41.4403
  2467.5     85.0247
  2468.0     115.643
  2468.5     81.0838
  2469.0     39.9986
  2469.5     26.7594
  2470.0     29.6237
  2470.5     37.4993
  2471.0     68.1211
  2471.5     201.032
  2472.0     392.576
  2472.5     454.876
  2473.0     351.244
  2473.5     175.071
  2474.0     70.9543
  2474.5     46.6117
  2475.0     57.6869
  2475.5     21.6655
  2476.0     17.8048
  2476.5     12.1033
  2477.0     14.9382
  2477.5     26.1636
  2478.0     34.5673
  2478.5     35.7631
  2479.0     33.2009
  2479.5     35.2513
  2480.0     48.1903
  2480.5     76.7232
  2481.0      97.315
  2481.5     88.4927
  2482.0     50.5908
  2482.5     28.7246
  2483.0     35.3662
  2483.5     70.9612
  2484.0     111.628
  2484.5     120.906
  2485.0     73.3394
  2485.5      34.209
  2486.0      28.551
  2486.5     50.6192
  2487.0     81.6329
  2487.5     121.441
  2488.0     139.434
  2488.5     118.922
  2489.0     82.6951
  2489.5     59.0497
  2490.0     51.5329
  2490.5     50.0377
  2491.0     64.8585
  2491.5     86.7643
  2492.0     99.4094
  2492.5     88.8711
  2493.0     69.8492
  2493.5     77.5673
  2494.0     118.603
  2494.5     162.865
  2495.0      155.64
  2495.5     94.1759
  2496.0     56.3256
  2496.5     51.8436
  2497.0     63.4584
  2497.5     63.5735
  2498.0     54.4934
  2498.5     45.5118
  2499.0     44.9197
  2499.5     50.8603
  2500.0     52.4025
  2500.5     42.9515
  2501.0      36.934
  2501.5      38.452
  2502.0     58.4582
  2502.5     108.046
  2503.0     151.865
  2503.5     143.579
  2504.0     112.203
  2504.5     92.0952
  2505.0    103.3844
  2505.5     142.362
  2506.0      161.72
  2506.5     138.552
  2507.0     84.1005
  2507.5     42.0324
  2508.0     40.4639
  2508.5     70.0837
  2509.0     96.1273
  2509.5    100.6128
  2510.0    100.4574
  2510.5     146.229
  2511.0     179.158
  2511.5     179.585
  2512.0     155.971
  2512.5     149.022
  2513.0      120.38
  2513.5     89.6344
  2514.0     87.4259
  2514.5     130.098
  2515.0     181.029
  2515.5     215.052
  2516.0     234.824
  2516.5      244.07
  2517.0     244.333
  2517.5     223.836
  2518.0     172.116
  2518.5     136.617
  2519.0     142.809
  2519.5     179.137
  2520.0     159.012
  2520.5     110.724
  2521.0     80.4822
  2521.5     95.8137
  2522.0     140.204
  2522.5     143.732
  2523.0     147.409
  2523.5     173.758
  2524.0     221.338
  2524.5     222.148
  2525.0     201.899
  2525.5     189.137
  2526.0     200.738
  2526.5     235.732
  2527.0     241.884
  2527.5     216.516
  2528.0     191.087
  2528.5     193.725
  2529.0     220.994
  2529.5     252.679
  2530.0     270.505
  2530.5     279.561
  2531.0     297.724
  2531.5      315.95
  2532.0     310.758
  2532.5     301.739
  2533.0     298.163
  2533.5     279.195
  2534.0     229.739
  2534.5     210.667
  2535.0     239.598
  2535.5     300.985
  2536.0     336.701
  2536.5     330.599
  2537.0     294.288
  2537.5     250.279
  2538.0     226.598
  2538.5     246.551
  2539.0     263.061
  2539.5     250.951
  2540.0     208.382
  2540.5     210.242
  2541.0     250.483
  2541.5     298.727
  2542.0     331.525
  2542.5     352.599
  2543.0     364.841
  2543.5     367.076
  2544.0     364.206
  2544.5     364.644
  2545.0     362.552
  2545.5     342.898
  2546.0     317.618
  2546.5     307.032
  2547.0     335.603
  2547.5     371.316
  2548.0     390.974
  2548.5     384.481
  2549.0     359.284
  2549.5     331.681
  2550.0     332.199
  2550.5     355.646
  2551.0     374.728
  2551.5     367.601
  2552.0     366.204
  2552.5     378.279
  2553.0     396.641
  2553.5     379.382
  2554.0      341.23
  2554.5     312.247
  2555.0     304.152
  2555.5     297.227
  2556.0      279.27
  2556.5     272.539
  2557.0     283.135
  2557.5     304.779
  2558.0     313.866
  2558.5     327.093
  2559.0     350.368
  2559.5     384.255
  2560.0     416.191
  2560.5     436.193
  2561.0     444.763
  2561.5      445.78
  2562.0     445.813
  2562.5     446.318
  2563.0     444.098
  2563.5     439.697
  2564.0     442.296
  2564.5     448.138
  2565.0     447.165
  2565.5     434.926
  2566.0      412.56
  2566.5     395.163
  2567.0     394.694
  2567.5     410.788
  2568.0     432.947
  2568.5     448.245
  2569.0      458.31
  2569.5     463.237
  2570.0     462.993
  2570.5     452.261
  2571.0     438.871
  2571.5     431.464
  2572.0     437.771
  2572.5      454.07
  2573.0     468.769
  2573.5     476.606
  2574.0     475.388
  2574.5      470.44
  2575.0     468.704
  2575.5     469.709
  2576.0     472.514
  2576.5     482.551
  2577.0     488.982
  2577.5     484.205
  2578.0     466.311
  2578.5     453.456
  2579.0     451.466
  2579.5     457.248
  2580.0     467.582
  2580.5     484.855
  2581.0     495.406
  2581.5     498.113
  2582.0     494.975
  2582.5     493.845
  2583.0     502.843
  2583.5     514.181
  2584.0     520.244
  2584.5     518.663
  2585.0     510.305
  2585.5     503.482
  2586.0     504.954
  2586.5     514.553
  2587.0     523.129
  2587.5     527.639
  2588.0     526.899
  2588.5     524.198
  2589.0     525.997
  2589.5     525.911
  2590.0     518.113
  2590.5     510.309
  2591.0     509.018
  2591.5     514.289
  2592.0     524.299
  2592.5     533.796
  2593.0     541.583
  2593.5     548.355
  2594.0     555.382
  2594.5      560.46
  2595.0     564.036
  2595.5     565.203
  2596.0     562.535
  2596.5     560.627
  2597.0     557.557
  2597.5     552.093
  2598.0     542.607
  2598.5     532.827
  2599.0     526.425
  2599.5     526.417
  2600.0     536.321
  2600.5     547.726
  2601.0     558.794
  2601.5     567.204
  2602.0     569.534
  2602.5     569.113
  2603.0     572.532
  2603.5      582.67
  2604.0     587.584
  2604.5     590.313
  2605.0     593.264
  2605.5     598.274
  2606.0     598.611
  2606.5     598.498
  2607.0     598.671
  2607.5     599.102
  2608.0     594.899
  2608.5     590.866
  2609.0     589.866
  2609.5     595.856
  2610.0     595.469
  2610.5     590.352
  2611.0     583.704
  2611.5     585.588
  2612.0      593.36
  2612.5     602.774
  2613.0     609.448
  2613.5     607.601
  2614.0     604.437
  2614.5     603.699
  2615.0     608.788
  2615.5     617.462
  2616.0     627.407
  2616.5     635.773
  2617.0     637.881
  2617.5     638.643
  2618.0     637.482
  2618.5     635.226
  2619.0     637.084
  2619.5     643.091
  2620.0     649.429
  2620.5     651.603
  2621.0     648.576
  2621.5     640.111
  2622.0     628.162
  2622.5     616.498
  2623.0     608.254
  2623.5     604.242
  2624.0     605.539
  2624.5     613.931
  2625.0     627.935
  2625.5     644.681
  2626.0     660.948
  2626.5     672.051
  2627.0     675.197
  2627.5       671.2
  2628.0      663.18
  2628.5     662.579
  2629.0     669.312
  2629.5     681.723
  2630.0     687.043
  2630.5      688.57
  2631.0     688.221
  2631.5     688.554
  2632.0     686.479
  2632.5     684.942
  2633.0     685.651
  2633.5     691.519
  2634.0     691.063
  2634.5     682.701
  2635.0     665.752
  2635.5     650.169
  2636.0     634.749
  2636.5     618.911
  2637.0     599.329
  2637.5     589.588
  2638.0     593.565
  2638.5     612.014
  2639.0     617.141
  2639.5     619.733
  2640.0     626.931
  2640.5     650.886
  2641.0     677.077
  2641.5      697.34
  2642.0     704.338
  2642.5     689.489
  2643.0     670.699
  2643.5     659.187
  2644.0       669.9
  2644.5     686.116
  2645.0     706.272
  2645.5     726.672
  2646.0      739.09
  2646.5     733.715
  2647.0     713.512
  2647.5     685.339
  2648.0     657.943
  2648.5     641.457
  2649.0     642.289
  2649.5     655.081
  2650.0      669.77
  2650.5      687.51
  2651.0     715.563
  2651.5     744.047
  2652.0     766.915
  2652.5     778.925
  2653.0     776.292
  2653.5     766.055
  2654.0     756.224
  2654.5     760.981
  2655.0     774.491
  2655.5     783.668
  2656.0     777.468
  2656.5     763.578
  2657.0     754.648
  2657.5     754.912
  2658.0     763.617
  2658.5     777.856
  2659.0     793.896
  2659.5     807.853
  2660.0     814.424
  2660.5     815.348
  2661.0     812.496
  2661.5     812.353
  2662.0      813.78
  2662.5     816.775
  2663.0     821.338
  2663.5     827.222
  2664.0     835.877
  2664.5     847.846
  2665.0     855.545
  2665.5     859.966
  2666.0     861.601
  2666.5     861.668
  2667.0     861.551
  2667.5     862.211
  2668.0     865.089
  2668.5     865.076
  2669.0     866.656
  2669.5      871.83
  2670.0     879.129
  2670.5     884.119
  2671.0     885.223
  2671.5      879.97
  2672.0     878.494
  2672.5     879.691
  2673.0     882.551
  2673.5     882.507
  2674.0     884.136
  2674.5     889.315
  2675.0      896.33
  2675.5     902.039
  2676.0     906.352
  2676.5     911.229
  2677.0     914.272
  2677.5     916.412
  2678.0     918.793
  2678.5     920.913
  2679.0     924.351
  2679.5     929.368
  2680.0     928.031
  2680.5     924.163
  2681.0     919.951
  2681.5     919.665
  2682.0      922.65
  2682.5     928.127
  2683.0     935.716
  2683.5     939.078
  2684.0     941.066
  2684.5     943.592
  2685.0     943.203
  2685.5      946.21
  2686.0     953.825
  2686.5     957.212
  2687.0     955.234
  2687.5     950.799
  2688.0     953.208
  2688.5     958.099
  2689.0     961.315
  2689.5     956.052
  2690.0     951.062
  2690.5      948.74
  2691.0     951.841
  2691.5     955.602
  2692.0     961.854
  2692.5     971.417
  2693.0     987.575
  2693.5    1000.539
  2694.0     1008.18
  2694.5     1010.68
  2695.0     1011.43
  2695.5     1011.35
  2696.0     1012.12
  2696.5     1008.63
  2697.0    1004.942
  2697.5    1005.459
  2698.0     1007.71
  2698.5     1009.52
  2699.0     1009.29
  2699.5      1010.6
  2700.0     1015.94
  2700.5     1025.78
  2701.0      1036.2
  2701.5     1039.79
  2702.0     1036.07
  2702.5     1029.02
  2703.0     1024.57
  2703.5     1023.93
  2704.0     1029.25
  2704.5     1032.24
  2705.0     1034.77
  2705.5     1039.88
  2706.0     1042.53
  2706.5     1045.19
  2707.0      1049.6
  2707.5     1057.55
  2708.0     1067.69
  2708.5     1079.24
  2709.0     1088.99
  2709.5     1096.08
  2710.0     1100.08
  2710.5     1103.19
  2711.0     1103.48
  2711.5     1100.85
  2712.0     1097.03
  2712.5     1091.41
  2713.0     1084.93
  2713.5     1080.82
  2714.0     1076.93
  2714.5     1072.52
  2715.0     1064.83
  2715.5     1062.98
  2716.0     1068.44
  2716.5     1084.78
  2717.0      1102.9
  2717.5     1119.09
  2718.0     1127.25
  2718.5     1133.97
  2719.0     1141.49
  2719.5     1152.92
  2720.0     1167.03
  2720.5      1177.6
  2721.0     1179.31
  2721.5     1174.13
  2722.0     1167.43
  2722.5     1162.82
  2723.0     1167.58
  2723.5     1176.99
  2724.0      1188.9
  2724.5     1197.51
  2725.0     1199.92
  2725.5     1194.52
  2726.0     1183.28
  2726.5     1166.71
  2727.0     1146.42
  2727.5      1133.5
  2728.0     1120.04
  2728.5     1104.77
  2729.0     1090.08
  2729.5     1083.06
  2730.0      1085.3
  2730.5     1096.03
  2731.0     1107.59
  2731.5     1118.69
  2732.0     1132.78
  2732.5     1141.85
  2733.0     1148.24
  2733.5     1166.33
  2734.0     1193.99
  2734.5     1224.85
  2735.0     1236.49
  2735.5     1233.33
  2736.0     1220.32
  2736.5     1211.61
  2737.0     1214.34
  2737.5      1228.4
  2738.0     1250.95
  2738.5     1271.39
  2739.0     1287.92
  2739.5     1300.45
  2740.0     1304.88
  2740.5      1303.9
  2741.0      1309.1
  2741.5     1312.27
  2742.0     1311.31
  2742.5     1301.97
  2743.0     1285.29
  2743.5     1265.55
  2744.0     1256.79
  2744.5     1260.95
  2745.0     1274.03
  2745.5     1278.06
  2746.0     1273.74
  2746.5     1264.15
  2747.0     1265.05
  2747.5     1272.22
  2748.0     1284.48
  2748.5     1300.59
  2749.0     1303.53
  2749.5     1292.05
  2750.0     1283.55
  2750.5     1293.35
  2751.0     1323.85
  2751.5     1348.87
  2752.0     1361.25
  2752.5     1358.18
  2753.0     1361.16
  2753.5     1369.25
  2754.0     1383.54
  2754.5     1399.69
  2755.0     1412.46
  2755.5      1418.6
  2756.0     1418.28
  2756.5      1414.9
  2757.0     1410.55
  2757.5     1406.51
  2758.0     1402.45
  2758.5     1397.85
  2759.0     1396.68
  2759.5     1398.33
  2760.0      1402.8
  2760.5     1409.86
  2761.0     1420.33
  2761.5     1436.88
  2762.0     1449.95
  2762.5     1459.51
  2763.0     1464.26
  2763.5     1466.47
  2764.0     1465.56
  2764.5     1458.25
  2765.0     1454.65
  2765.5     1456.34
  2766.0     1467.82
  2766.5     1477.55
  2767.0     1483.59
  2767.5     1487.44
  2768.0      1485.8
  2768.5     1478.28
  2769.0     1471.47
  2769.5     1474.41
  2770.0     1492.54
  2770.5      1509.1
  2771.0     1521.44
  2771.5     1525.22
  2772.0     1525.71
  2772.5     1521.35
  2773.0     1509.91
  2773.5     1498.14
  2774.0      1489.6
  2774.5     1491.32
  2775.0      1500.6
  2775.5     1515.31
  2776.0     1530.88
  2776.5     1545.47
  2777.0     1558.09
  2777.5     1566.24
  2778.0     1568.74
  2778.5      1565.6
  2779.0     1563.46
  2779.5     1562.15
  2780.0     1561.91
  2780.5     1569.45
  2781.0     1578.67
  2781.5     1585.35
  2782.0     1591.33
  2782.5     1594.23
  2783.0     1591.16
  2783.5     1578.76
  2784.0     1564.12
  2784.5     1563.97
  2785.0     1577.13
  2785.5     1601.54
  2786.0     1626.62
  2786.5     1646.58
  2787.0     1658.78
  2787.5     1662.46
  2788.0     1657.83
  2788.5     1643.44
  2789.0     1629.81
  2789.5     1619.36
  2790.0     1620.61
  2790.5     1611.92
  2791.0     1594.17
  2791.5     1558.79
  2792.0     1546.35
  2792.5      1558.6
  2793.0     1592.73
  2793.5     1609.47
  2794.0     1595.49
  2794.5     1583.06
  2795.0     1577.49
  2795.5     1590.77
  2796.0     1589.38
  2796.5     1589.46
  2797.0     1610.76
  2797.5     1634.13
  2798.0     1647.82
  2798.5      1604.6
  2799.0     1561.57
  2799.5     1531.52
  2800.0     1559.83
  2800.5     1603.54
  2801.0     1644.38
  2801.5      1686.7
  2802.0     1729.11
  2802.5     1773.99
  2803.0     1796.87
  2803.5     1802.51
  2804.0     1799.88
  2804.5     1791.09
  2805.0     1777.43
  2805.5     1765.67
  2806.0     1751.95
  2806.5     1733.61
  2807.0     1722.15
  2807.5     1717.22
  2808.0     1726.89
  2808.5      1719.6
  2809.0     1693.01
  2809.5     1622.57
  2810.0     1580.44
  2810.5     1580.61
  2811.0     1584.26
  2811.5     1570.53
  2812.0     1499.15
  2812.5     1505.92
  2813.0     1560.64
  2813.5     1662.05
  2814.0     1741.89
  2814.5     1793.38
  2815.0     1801.59
  2815.5     1772.79
  2816.0     1703.08
  2816.5     1655.36
  2817.0      1629.9
  2817.5     1639.41
  2818.0      1687.7
  2818.5     1759.96
  2819.0     1815.92
  2819.5     1843.19
  2820.0     1836.91
  2820.5     1854.83
  2821.0     1873.45
  2821.5     1898.11
  2822.0     1841.68
  2822.5     1721.15
  2823.0     1520.02
  2823.5     1380.92
  2824.0     1326.02
  2824.5     1384.37
  2825.0     1437.56
  2825.5     1394.47
  2826.0     1359.47
  2826.5     1368.39
  2827.0     1572.35
  2827.5     1692.76
  2828.0     1695.07
  2828.5     1476.05
  2829.0     1233.79
  2829.5     1061.72
  2830.0     1014.72
  2830.5     1071.18
  2831.0     1235.85
  2831.5      1428.6
  2832.0     1632.71
  2832.5     1741.34
  2833.0     1816.43
  2833.5     1882.24
  2834.0     1946.71
  2834.5     1990.09
  2835.0      1969.3
  2835.5     1907.38
  2836.0     1808.79
  2836.5      1761.3
  2837.0     1767.07
  2837.5     1865.46
  2838.0     1936.33
  2838.5     1970.47
  2839.0      1892.8
  2839.5     1775.74
  2840.0     1626.97
  2840.5     1597.46
  2841.0      1610.5
  2841.5     1636.78
  2842.0     1568.12
  2842.5      1425.6
  2843.0     1301.63
  2843.5     1187.83
  2844.0     1079.36
  2844.5      1034.4
  2845.0     1069.74
  2845.5     1266.32
  2846.0     1468.58
  2846.5     1657.84
  2847.0     1744.75
  2847.5     1793.32
  2848.0      1829.5
  2848.5     1903.69
  2849.0     1975.79
  2849.5     1924.89
  2850.0     1774.89
  2850.5     1490.93
  2851.0     1383.75
  2851.5     1401.06
  2852.0     1591.72
  2852.5     1769.91
  2853.0      1920.7
  2853.5     2028.98
  2854.0     2105.32
  2854.5     2162.01
  2855.0     2153.69
  2855.5     2084.79
  2856.0     1949.71
  2856.5     1780.99
  2857.0     1583.16
  2857.5     1384.86
  2858.0     1237.77
  2858.5     1264.05
  2859.0     1391.87
  2859.5     1619.04
  2860.0     1725.55
  2860.5     1733.16
  2861.0     1600.15
  2861.5     1395.53
  2862.0     1139.56
  2862.5     994.954
  2863.0     952.622
  2863.5      1073.1
  2864.0     1135.79
  2864.5     1152.43
  2865.0      1014.7
  2865.5     987.924
  2866.0     1201.06
  2866.5     1441.36
  2867.0     1649.12
  2867.5      1565.5
  2868.0     1487.21
  2868.5     1466.73
  2869.0     1455.67
  2869.5     1453.09
  2870.0     1421.42
  2870.5      1501.4
  2871.0     1704.79
  2871.5     1960.09
  2872.0     2163.87
  2872.5     2202.84
  2873.0      2047.7
  2873.5     1711.45
  2874.0     1332.58
  2874.5     984.711
  2875.0     739.521
  2875.5     624.141
  2876.0     643.625
  2876.5     898.201
  2877.0      1204.3
  2877.5     1514.64
  2878.0     1553.93
  2878.5     1403.35
  2879.0     1285.32
  2879.5     1177.43
  2880.0     1090.31
  2880.5     1039.22
  2881.0     1025.81
  2881.5     1100.88
  2882.0     1128.43
  2882.5    1005.671
  2883.0      997.22
  2883.5     1069.91
  2884.0     1315.84
  2884.5      1451.2
  2885.0     1342.19
  2885.5     1126.87
  2886.0     892.224
  2886.5      987.87
  2887.0     1248.69
  2887.5     1733.62
  2888.0     1975.31
  2888.5     2056.95
  2889.0     1938.83
  2889.5     1742.83
  2890.0     1485.77
  2890.5     1300.48
  2891.0     1161.88
  2891.5     1074.06
  2892.0     1038.26
  2892.5     1072.36
  2893.0     1107.91
  2893.5     1114.96
  2894.0     883.931
  2894.5      638.88
  2895.0     445.136
  2895.5     400.103
  2896.0     454.392
  2896.5     436.075
  2897.0     420.049
  2897.5      406.75
  2898.0     484.145
  2898.5     649.178
  2899.0     953.876
  2899.5     1356.96
  2900.0     1922.09
  2900.5      2257.5
  2901.0     2376.79
  2901.5     2177.55
  2902.0     1857.46
  2902.5     1535.35
  2903.0     1392.81
  2903.5     1436.63
  2904.0     1717.88
  2904.5     2012.61
  2905.0      2021.8
  2905.5     1859.51
  2906.0     1493.38
  2906.5     1296.86
  2907.0        1175
  2907.5     1097.61
  2908.0      1050.4
  2908.5     1041.59
  2909.0     994.669
  2909.5     921.624
  2910.0     803.968
  2910.5     670.316
  2911.0      484.96
  2911.5     486.096
  2912.0     632.711
  2912.5     841.508
  2913.0     1054.02
  2913.5     1204.09
  2914.0     1328.79
  2914.5     1432.42
  2915.0        1190
  2915.5     862.738
  2916.0     713.289
  2916.5      740.33
  2917.0     1042.11
  2917.5     988.423
  2918.0     764.999
  2918.5      492.06
  2919.0     324.457
  2919.5      353.33
  2920.0     517.148
  2920.5     815.836
  2921.0     1262.21
  2921.5     1718.27
  2922.0     2079.44
  2922.5     2289.16
  2923.0     2336.06
  2923.5     2354.43
  2924.0     2290.92
  2924.5      2085.5
  2925.0     1790.19
  2925.5     1379.46
  2926.0     1023.32
  2926.5     704.192
  2927.0     497.188
  2927.5     378.111
  2928.0      339.59
  2928.5     402.077
  2929.0     571.965
  2929.5     740.301
  2930.0     848.926
  2930.5     704.214
  2931.0     516.378
  2931.5     267.039
  2932.0     278.335
  2932.5     460.105
  2933.0     645.588
  2933.5     758.598
  2934.0      654.67
  2934.5     552.853
  2935.0     457.596
  2935.5     358.343
  2936.0     318.583
  2936.5     516.348
  2937.0     816.296
  2937.5     1276.26
  2938.0     1446.65
  2938.5     1391.12
  2939.0     1359.45
  2939.5     1280.65
  2940.0     1123.64
  2940.5     941.211
  2941.0     685.439
  2941.5     652.201
  2942.0     780.229
  2942.5     1124.44
  2943.0      1495.3
  2943.5     1839.34
  2944.0      1812.3
  2944.5     1350.49
  2945.0      898.76
  2945.5     530.573
  2946.0     770.955
  2946.5     1254.24
  2947.0     2062.51
  2947.5     2324.41
  2948.0     2088.89
  2948.5     1517.64
  2949.0     818.806
  2949.5     462.964
  2950.0      274.91
  2950.5     282.513
  2951.0     278.407
  2951.5     292.112
  2952.0      524.69
  2952.5     893.403
  2953.0      1422.4
  2953.5     1817.12
  2954.0     1977.94
  2954.5     2033.37
  2955.0     1967.58
  2955.5     1725.12
  2956.0     1358.82
  2956.5       826.7
  2957.0      487.37
  2957.5     451.959
  2958.0     573.406
  2958.5     847.167
  2959.0     973.003
  2959.5     1013.08
  2960.0     934.041
  2960.5     813.062
  2961.0     617.532
  2961.5     579.289
  2962.0     653.184
  2962.5     765.445
  2963.0     833.777
  2963.5      673.11
  2964.0     482.854
  2964.5     249.851
  2965.0     213.362
  2965.5     335.522
  2966.0     513.058
  2966.5     738.686
  2967.0     939.219
  2967.5     1202.53
  2968.0     1613.98
  2968.5     1893.81
  2969.0     2066.46
  2969.5     2121.47
  2970.0     2133.63
  2970.5     2300.19
  2971.0     2466.85
  2971.5     2618.45
  2972.0     2605.67
  2972.5      2407.1
  2973.0     2230.53
  2973.5     2054.51
  2974.0     1990.74
  2974.5     1943.88
  2975.0     1856.82
  2975.5     1757.58
  2976.0     1686.94
  2976.5     1410.61
  2977.0     1014.71
  2977.5     866.047
  2978.0     954.268
  2978.5     1554.21
  2979.0     2028.52
  2979.5      2211.9
  2980.0     2145.89
  2980.5     1815.98
  2981.0     1607.51
  2981.5     1407.85
  2982.0     1127.27
  2982.5     876.685
  2983.0     693.151
  2983.5     639.085
  2984.0     788.051
  2984.5     749.309
  2985.0     618.561
  2985.5         507
  2986.0     430.047
  2986.5     480.608
  2987.0      523.42
  2987.5     514.943
  2988.0     507.529
  2988.5     504.643
  2989.0     419.532
  2989.5     297.695
  2990.0     213.092
  2990.5     210.946
  2991.0     393.124
  2991.5     574.317
  2992.0     748.434
  2992.5     840.193
  2993.0     863.441
  2993.5     909.453
  2994.0     934.686
  2994.5     819.854
  2995.0     795.851
  2995.5      1019.4
  2996.0     1346.61
  2996.5     1911.23
  2997.0     2044.72
  2997.5     1890.71
  2998.0     1717.96
  2998.5     1474.58
  2999.0     1178.52
  2999.5     861.711
  3000.0     497.828
  3000.5     271.359
  3001.0      198.68
  3001.5     240.444
  3002.0     398.249
  3002.5     568.115
  3003.0       745.8
  3003.5     822.679
  3004.0     966.887
  3004.5     1300.93
  3005.0     1641.51
  3005.5     2048.45
  3006.0     2211.58
  3006.5     2193.85
  3007.0     1976.44
  3007.5     1656.87
  3008.0     1479.16
  3008.5     1370.16
  3009.0     1410.15
  3009.5     1286.34
  3010.0     869.178
  3010.5     552.434
  3011.0     263.717
  3011.5     284.913
  3012.0     490.786
  3012.5     665.203
  3013.0     817.718
  3013.5     889.754
  3014.0     907.751
  3014.5     879.002
  3015.0     776.349
  3015.5     547.699
  3016.0     491.884
  3016.5     557.065
  3017.0     1023.33
  3017.5     1662.93
  3018.0     2245.86
  3018.5     2612.57
  3019.0     2553.31
  3019.5     2361.25
  3020.0      1938.4
  3020.5     1797.72
  3021.0     1849.84
  3021.5     2262.15
  3022.0      2849.7
  3022.5     2872.45
  3023.0     2532.35
  3023.5      1639.5
  3024.0     836.771
  3024.5     399.332
  3025.0     177.135
  3025.5     197.677
  3026.0      347.85
  3026.5     663.986
  3027.0     920.225
  3027.5     1117.37
  3028.0     951.433
  3028.5     707.974
  3029.0     639.227
  3029.5     650.611
  3030.0     737.283
  3030.5     902.743
  3031.0     1125.93
  3031.5     1535.85
  3032.0     2155.97
  3032.5     2241.12
  3033.0     2001.35
  3033.5     1437.55
  3034.0     874.667
  3034.5     757.646
  3035.0    1002.709
  3035.5     1835.07
  3036.0     2503.16
  3036.5     3033.38
  3037.0      3107.1
  3037.5     2712.75
  3038.0     2373.46
  3038.5     1985.73
  3039.0     1725.06
  3039.5     1597.26
  3040.0     1816.68
  3040.5     2042.86
  3041.0     2093.22
  3041.5     1894.94
  3042.0     1244.56
  3042.5     824.425
  3043.0     574.333
  3043.5     618.256
  3044.0     930.761
  3044.5     1402.68
  3045.0     1969.65
  3045.5     2153.56
  3046.0      2074.1
  3046.5     1524.19
  3047.0     1093.56
  3047.5     1175.12
  3048.0     1467.07
  3048.5     2154.89
  3049.0     2389.92
  3049.5     2083.82
  3050.0     1945.13
  3050.5     1795.01
  3051.0     2206.97
  3051.5        2909
  3052.0     3140.57
  3052.5     3177.16
  3053.0     3020.05
  3053.5     2975.66
  3054.0     3443.09
  3054.5     3747.73
  3055.0     3771.79
  3055.5     3501.84
  3056.0     2779.25
  3056.5     2301.05
  3057.0        1947
  3057.5      1641.2
  3058.0      1391.1
  3058.5     1008.09
  3059.0     609.848
  3059.5     366.727
  3060.0     295.892
  3060.5     509.535
  3061.0     888.803
  3061.5     1515.03
  3062.0      1954.6
  3062.5     2143.28
  3063.0     2122.81
  3063.5     1794.07
  3064.0     1593.02
  3064.5     1432.92
  3065.0     1210.79
  3065.5     974.899
  3066.0     1123.17
  3066.5     1463.59
  3067.0     1817.37
  3067.5     2043.17
  3068.0     1703.66
  3068.5     1435.94
  3069.0     1610.47
  3069.5     1889.36
  3070.0     2386.25
  3070.5     2520.98
  3071.0     2069.19
  3071.5     2022.32
  3072.0     2283.24
  3072.5      2566.5
  3073.0     2971.62
  3073.5     2619.31
  3074.0        1828
  3074.5     1193.44
  3075.0     638.389
  3075.5     428.943
  3076.0     371.973
  3076.5     346.909
  3077.0     368.799
  3077.5     424.656
  3078.0     509.834
  3078.5     594.018
  3079.0      783.39
  3079.5     1024.82
  3080.0     1533.38
  3080.5     2389.13
  3081.0     3100.69
  3081.5     3865.04
  3082.0     3806.39
  3082.5     3175.61
  3083.0     2555.38
  3083.5     1885.27
  3084.0     1598.09
  3084.5     1521.27
  3085.0     1611.08
  3085.5     1778.92
  3086.0     2009.85
  3086.5     2058.56
  3087.0     1603.66
  3087.5      1345.3
  3088.0     1432.69
  3088.5     1729.53
  3089.0     2503.55
  3089.5     2692.56
  3090.0     2285.13
  3090.5     1856.29
  3091.0      1134.6
  3091.5      1121.1
  3092.0     1586.99
  3092.5     2204.74
  3093.0     2984.51
  3093.5     3021.74
  3094.0     2722.89
  3094.5     2590.67
  3095.0     2548.04
  3095.5     2885.69
  3096.0     3138.64
  3096.5     2748.79
  3097.0     2356.38
  3097.5     2219.67
  3098.0     2274.14
  3098.5     2770.27
  3099.0     2866.44
  3099.5     2345.76
  3100.0      1771.3
  3100.5     965.539
  3101.0     547.599
  3101.5     419.991
  3102.0     606.848
  3102.5      1185.8
  3103.0     1657.29
  3103.5     2158.89
  3104.0     2491.54
  3104.5     2715.83
  3105.0     3321.82
  3105.5     4065.37
  3106.0     4222.56
  3106.5     4015.61
  3107.0     3318.86
  3107.5     2501.72
  3108.0     2237.11
  3108.5     2162.22
  3109.0     2054.27
  3109.5     2147.09
  3110.0     2671.48
  3110.5     3223.29
  3111.0     3866.66
  3111.5     3952.95
  3112.0     3024.86
  3112.5     2181.13
  3113.0      1295.4
  3113.5     1097.39
  3114.0     1813.93
  3114.5     2480.09
  3115.0     3487.93
  3115.5     3671.69
  3116.0     3068.34
  3116.5        2415
  3117.0     1380.31
  3117.5     852.572
  3118.0     644.701
  3118.5     470.822
  3119.0     410.829
  3119.5     344.108
  3120.0     304.253
  3120.5     324.378
  3121.0     388.193
  3121.5     446.625
  3122.0     508.449
  3122.5     501.067
  3123.0     535.881
  3123.5     881.727
  3124.0     1381.32
  3124.5     1945.37
  3125.0     2512.89
  3125.5     2933.56
  3126.0     3329.45
  3126.5     3855.23
  3127.0     4228.98
  3127.5     4288.13
  3128.0      4098.5
  3128.5     3622.07
  3129.0     2976.85
  3129.5     2088.33
  3130.0     1311.18
  3130.5     667.953
  3131.0     311.435
  3131.5     376.249
  3132.0     458.448
  3132.5     583.468
  3133.0      621.12
  3133.5     550.624
  3134.0     468.589
  3134.5     341.088
  3135.0     270.502
  3135.5     249.909
  3136.0     252.536
  3136.5     249.728
  3137.0     370.229
  3137.5     455.233
  3138.0     1050.24
  3138.5     2243.32
  3139.0     3087.91
  3139.5      4029.1
  3140.0     3952.68
  3140.5      2929.7
  3141.0     2228.21
  3141.5     1462.97
  3142.0     1071.49
  3142.5     968.391
  3143.0     845.938
  3143.5     770.828
  3144.0     954.861
  3144.5     1334.74
  3145.0      2117.3
  3145.5     3248.01
  3146.0     4021.16
  3146.5     4614.84
  3147.0     4149.08
  3147.5        2948
  3148.0     2105.71
  3148.5     1339.82
  3149.0     1132.09
  3149.5     1262.21
  3150.0     1107.55
  3150.5     878.175
  3151.0     708.474
  3151.5     564.582
  3152.0     459.936
  3152.5     423.421
  3153.0     625.658
  3153.5     981.127
  3154.0     1422.62
  3154.5      1881.8
  3155.0     2006.07
  3155.5     1961.95
  3156.0     1921.33
  3156.5     1833.84
  3157.0     1716.14
  3157.5      1562.5
  3158.0     1346.72
  3158.5     1120.13
  3159.0     1012.51
  3159.5      959.24
  3160.0     923.818
  3160.5     881.836
  3161.0     717.195
  3161.5     506.754
  3162.0     335.282
  3162.5     193.964
  3163.0     145.318
  3163.5     144.964
  3164.0     111.507
  3164.5     111.076
  3165.0     260.819
  3165.5     491.498
  3166.0     774.725
  3166.5     1035.25
  3167.0        1013
  3167.5     843.969
  3168.0     634.856
  3168.5      402.14
  3169.0     315.334
  3169.5     297.685
  3170.0     266.157
  3170.5     271.816
  3171.0     397.301
  3171.5     617.173
  3172.0     996.377
  3172.5      1435.5
  3173.0     1559.19
  3173.5     1524.24
  3174.0      1494.1
  3174.5     1443.49
  3175.0     1595.77
  3175.5     1818.83
  3176.0     1603.64
  3176.5     1142.56
  3177.0     755.364
  3177.5      361.88
  3178.0     248.695
  3178.5     320.894
  3179.0     282.863
  3179.5     221.437
  3180.0     472.541
  3180.5     948.006
  3181.0     1403.49
  3181.5     1947.08
  3182.0      2000.3
  3182.5     1639.82
  3183.0     1725.94
  3183.5      2062.1
  3184.0     2353.95
  3184.5      2827.7
  3185.0     2582.59
  3185.5     1656.33
  3186.0     1087.53
  3186.5      521.84
  3187.0     307.276
  3187.5     470.417
  3188.0     552.715
  3188.5     619.494
  3189.0     865.409
  3189.5        1127
  3190.0     1854.21
  3190.5     3214.26
  3191.0     4284.85
  3191.5     5415.93
  3192.0      5848.8
  3192.5     5474.69
  3193.0      4966.6
  3193.5     4226.37
  3194.0     3466.27
  3194.5     2571.36
  3195.0     1918.93
  3195.5     1400.65
  3196.0     1447.79
  3196.5      2332.6
  3197.0     3443.34
  3197.5     4908.87
  3198.0     5963.96
  3198.5     6177.97
  3199.0     5870.67
  3199.5     4782.33
  3200.0     3758.19
  3200.5     3495.31
  3201.0     3814.95
  3201.5     5246.74
  3202.0     6902.97
  3202.5     7485.17
  3203.0     7379.55
  3203.5     5988.97
  3204.0     3949.38
  3204.5     3375.84
  3205.0     3559.81
  3205.5      4480.2
  3206.0     6144.83
  3206.5     6510.88
  3207.0     6108.12
  3207.5     5886.54
  3208.0     5460.12
  3208.5     5575.17
  3209.0     6257.06
  3209.5     6439.41
  3210.0     6209.79
  3210.5     6319.46
  3211.0     6646.03
  3211.5     6962.89
  3212.0     7566.04
  3212.5     7559.73
  3213.0     6832.96
  3213.5     6099.76
  3214.0      5212.6
  3214.5     4591.92
  3215.0     4410.07
  3215.5      4274.1
  3216.0     4034.96
  3216.5      3899.9
  3217.0      4009.8
  3217.5     4156.78
  3218.0     4216.44
  3218.5     4210.01
  3219.0     3942.34
  3219.5     3713.52
  3220.0     4234.33
  3220.5     5159.84
  3221.0     6012.89
  3221.5      6928.2
  3222.0     7220.49
  3222.5     7045.28
  3223.0      7065.8
  3223.5     7037.47
  3224.0     7250.68
  3224.5     7913.66
  3225.0     7899.58
  3225.5     7562.69
  3226.0     6697.03
  3226.5     4880.09
  3227.0     3705.79
  3227.5     2844.54
  3228.0     2859.25
  3228.5     4098.26
  3229.0     5556.58
  3229.5     7327.15
  3230.0     8660.28
  3230.5     9106.85
  3231.0     8846.25
  3231.5     7627.59
  3232.0     5893.47
  3232.5     4265.08
  3233.0     2643.45
  3233.5     1649.25
  3234.0     1069.45
  3234.5     756.554
  3235.0     799.953
  3235.5     791.389
  3236.0     881.614
  3236.5     920.057
  3237.0     810.482
  3237.5     1058.61
  3238.0     1411.99
  3238.5     2344.47
  3239.0     4246.06
  3239.5     5666.93
  3240.0     6803.34
  3240.5     7001.47
  3241.0     5473.94
  3241.5     3873.37
  3242.0     3070.54
  3242.5      2802.3
  3243.0      3542.7
  3243.5     4761.08
  3244.0     5190.39
  3244.5     5311.35
  3245.0     5805.52
  3245.5     6497.88
  3246.0     6983.85
  3246.5     7527.21
  3247.0     7476.17
  3247.5     6557.15
  3248.0     6402.77
  3248.5     6947.21
  3249.0      7265.5
  3249.5      7737.3
  3250.0     7409.17
  3250.5     5735.77
  3251.0     3948.43
  3251.5     2432.71
  3252.0     1230.25
  3252.5      774.38
  3253.0     736.545
  3253.5     667.837
  3254.0     715.523
  3254.5     690.516
  3255.0     644.999
  3255.5     649.036
  3256.0     672.618
  3256.5     753.702
  3257.0     810.602
  3257.5     1092.59
  3258.0     1368.58
  3258.5     2243.95
  3259.0     4021.88
  3259.5     5797.11
  3260.0     7630.55
  3260.5     8883.39
  3261.0     8628.69
  3261.5     7716.23
  3262.0     7214.65
  3262.5     6747.26
  3263.0     6573.42
  3263.5      6759.2
  3264.0     5950.57
  3264.5     4120.56
  3265.0     2962.75
  3265.5     1716.26
  3266.0     1404.85
  3266.5      2256.8
  3267.0     3046.52
  3267.5     3740.38
  3268.0     4338.25
  3268.5     4635.91
  3269.0     5005.87
  3269.5     5955.47
  3270.0     7124.69
  3270.5     7923.98
  3271.0     8578.61
  3271.5     8457.93
  3272.0     7705.64
  3272.5     6573.46
  3273.0     4613.77
  3273.5     3150.35
  3274.0     1778.76
  3274.5     934.295
  3275.0      792.66
  3275.5     828.106
  3276.0     897.756
  3276.5     1036.83
  3277.0     1057.54
  3277.5     1174.46
  3278.0     2004.36
  3278.5     3344.66
  3279.0     4991.37
  3279.5     7681.43
  3280.0     8479.43
  3280.5     8056.91
  3281.0     6947.25
  3281.5     4410.98
  3282.0     2448.33
  3282.5     1270.91
  3283.0     552.824
  3283.5     387.199
  3284.0     518.901
  3284.5     524.026
  3285.0     560.454
  3285.5     560.661
  3286.0     544.214
  3286.5     528.829
  3287.0     506.776
  3287.5     486.913
  3288.0     435.024
  3288.5     453.654
  3289.0     468.229
  3289.5     673.857
  3290.0     1246.59
  3290.5     1918.06
  3291.0     2424.71
  3291.5     2865.15
  3292.0     3145.11
  3292.5     3226.82
  3293.0     3635.34
  3293.5     4272.16
  3294.0     4926.22
  3294.5     5813.71
  3295.0     6413.34
  3295.5     6659.04
  3296.0     6805.03
  3296.5     6747.92
  3297.0      6837.1
  3297.5     7823.38
  3298.0     9285.58
  3298.5     9776.98
  3299.0     9829.15
  3299.5     9164.57
  3300.0     7385.82
  3300.5     6150.52
  3301.0     5196.56
  3301.5     4258.64
  3302.0     3096.27
  3302.5     2315.03
  3303.0     2343.71
  3303.5     2872.03
  3304.0     3766.08
  3304.5     5154.96
  3305.0        5238
  3305.5     4230.56
  3306.0     3507.84
  3306.5     2278.52
  3307.0     1851.41
  3307.5     2365.67
  3308.0     3045.28
  3308.5     3849.32
  3309.0     4536.35
  3309.5     4451.74
  3310.0      3928.6
  3310.5     4058.64
  3311.0     4264.59
  3311.5     5592.45
  3312.0     8365.01
  3312.5    10478.29
  3313.0     12434.9
  3313.5       13800
  3314.0     14315.8
  3314.5     14417.3
  3315.0     14450.9
  3315.5     14274.3
  3316.0     13924.4
  3316.5     13280.5
  3317.0     12934.6
  3317.5     12739.6
  3318.0       12597
  3318.5     12725.1
  3319.0     12541.7
  3319.5     11785.8
  3320.0     10904.9
  3320.5    10244.39
  3321.0     9665.09
  3321.5     9316.73
  3322.0     9389.46
  3322.5     8677.01
  3323.0     7265.69
  3323.5     6050.21
  3324.0      4750.5
  3324.5     3753.61
  3325.0     3137.61
  3325.5     2892.69
  3326.0     3129.17
  3326.5     3800.71
  3327.0     4816.58
  3327.5     6739.71
  3328.0     7460.43
  3328.5     7610.45
  3329.0     7116.76
  3329.5     5643.86
  3330.0     4089.45
  3330.5     2806.57
  3331.0     1685.49
  3331.5    1001.549
  3332.0     622.616
  3332.5     810.704
  3333.0     1782.37
  3333.5     2518.17
  3334.0     3601.54
  3334.5     4015.36
  3335.0     3383.58
  3335.5     2412.96
  3336.0     1546.09
  3336.5     635.421
  3337.0     549.247
  3337.5        1065
  3338.0     1881.07
  3338.5     3466.83
  3339.0     4625.33
  3339.5     5540.67
  3340.0     6012.33
  3340.5     5748.46
  3341.0     5042.86
  3341.5     4515.15
  3342.0     3930.48
  3342.5     3333.19
  3343.0     2253.99
  3343.5     2189.02
  3344.0     2997.68
  3344.5     4326.73
  3345.0     6640.04
  3345.5     8958.79
  3346.0     9335.77
  3346.5     8460.59
  3347.0     7129.48
  3347.5     4323.15
  3348.0     2624.82
  3348.5     1408.42
  3349.0      760.98
  3349.5     893.243
  3350.0     1400.74
  3350.5     1820.38
  3351.0     2377.02
  3351.5     2436.86
  3352.0     1921.44
  3352.5     1806.41
  3353.0      1739.2
  3353.5     2018.79
  3354.0     2702.79
  3354.5     3711.63
  3355.0     5090.32
  3355.5     6858.14
  3356.0     8171.33
  3356.5     9888.62
  3357.0    10033.82
  3357.5        8733
  3358.0     7077.06
  3358.5     4767.63
  3359.0     2576.14
  3359.5     1863.96
  3360.0     2127.47
  3360.5     2457.76
  3361.0     3544.28
  3361.5     4072.28
  3362.0     4269.93
  3362.5     4359.22
  3363.0     4465.11
  3363.5     4398.85
  3364.0      3822.7
  3364.5      2754.4
  3365.0     2100.83
  3365.5     1192.96
  3366.0     1265.52
  3366.5     2333.27
  3367.0     3751.76
  3367.5     5619.99
  3368.0     7585.57
  3368.5     8173.61
  3369.0     7796.93
  3369.5     7143.57
  3370.0     5466.11
  3370.5     4421.98
  3371.0     4135.09
  3371.5     3910.64
  3372.0     3325.12
  3372.5     2595.66
  3373.0     1902.84
  3373.5     874.205
  3374.0     573.615
  3374.5     833.528
  3375.0     1245.79
  3375.5     1921.68
  3376.0      2606.6
  3376.5      2761.2
  3377.0     2489.52
  3377.5      2793.5
  3378.0     3064.07
  3378.5     4217.59
  3379.0     6827.23
  3379.5     9008.66
  3380.0     9947.54
  3380.5    10086.63
  3381.0     9131.82
  3381.5     6390.76
  3382.0     4877.47
  3382.5     3634.98
  3383.0     2836.65
  3383.5     2621.86
  3384.0      2710.7
  3384.5     2797.04
  3385.0     3091.38
  3385.5     2937.78
  3386.0      2448.6
  3386.5      1940.8
  3387.0     1227.04
  3387.5     637.068
  3388.0      379.55
  3388.5     337.001
  3389.0      417.57
  3389.5     277.228
  3390.0     1187.03
  3390.5     3240.26
  3391.0     5186.99
  3391.5      7165.6
  3392.0     8759.56
  3392.5     8419.97
  3393.0     6179.16
  3393.5     4762.64
  3394.0     3032.81
  3394.5     1860.73
  3395.0     1387.61
  3395.5     1199.93
  3396.0     923.835
  3396.5     720.283
  3397.0     631.971
  3397.5     748.768
  3398.0     744.847
  3398.5         628
  3399.0     509.203
  3399.5     439.311
  3400.0     390.747
  3400.5     439.068
  3401.0     253.578
  3401.5     825.882
  3402.0     1987.58
  3402.5     3566.37
  3403.0     5870.42
  3403.5     8555.57
  3404.0      9501.2
  3404.5     9276.74
  3405.0     8558.46
  3405.5     6481.29
  3406.0     4851.24
  3406.5     4196.79
  3407.0     4037.57
  3407.5      3963.5
  3408.0     4407.67
  3408.5     4348.07
  3409.0      4063.7
  3409.5     3637.16
  3410.0      2986.4
  3410.5        2248
  3411.0     1793.85
  3411.5      1469.7
  3412.0     1308.32
  3412.5     1272.72
  3413.0     1438.58
  3413.5     1672.68
  3414.0     2198.92
  3414.5     3596.94
  3415.0     6250.57
  3415.5     7606.86
  3416.0     8855.35
  3416.5     8865.92
  3417.0     7039.67
  3417.5     4379.69
  3418.0     2679.64
  3418.5     1030.22
  3419.0     207.769
  3419.5     303.867
  3420.0     387.714
  3420.5      365.18
  3421.0     369.679
  3421.5      390.42
  3422.0     438.233
  3422.5     488.017
  3423.0     522.878
  3423.5     610.139
  3424.0     684.826
  3424.5     842.077
  3425.0     1415.93
  3425.5     2330.62
  3426.0     3403.86
  3426.5      4986.1
  3427.0     6295.61
  3427.5     7227.55
  3428.0     7838.78
  3428.5     7611.06
  3429.0     6456.98
  3429.5      5289.6
  3430.0     3540.52
  3430.5     2015.17
  3431.0     1059.04
  3431.5     455.832
  3432.0     185.314
  3432.5     460.178
  3433.0     633.824
  3433.5     904.955
  3434.0     1134.02
  3434.5     1197.55
  3435.0     1151.46
  3435.5     1067.55
  3436.0       841.3
  3436.5     712.914
  3437.0     538.566
  3437.5     541.842
  3438.0     1041.03
  3438.5     1946.41
  3439.0     3005.44
  3439.5     4850.83
  3440.0     5938.31
  3440.5     6105.88
  3441.0     5647.91
  3441.5     4778.94
  3442.0     2799.98
  3442.5     1756.38
  3443.0     1033.62
  3443.5     615.772
  3444.0     568.091
  3444.5     858.351
  3445.0     976.998
  3445.5     1174.54
  3446.0     1240.46
  3446.5     1160.05
  3447.0     1057.15
  3447.5     1041.63
  3448.0     1080.57
  3448.5     1056.25
  3449.0      931.32
  3449.5     921.127
  3450.0     985.173
  3450.5     1166.72
  3451.0      1645.7
  3451.5     2558.39
  3452.0     3221.85
  3452.5     3937.05
  3453.0     4469.89
  3453.5     4741.16
  3454.0     4812.25
  3454.5     4530.99
  3455.0     3807.93
  3455.5     3072.16
  3456.0     2146.03
  3456.5     1241.89
  3457.0     697.544
  3457.5     390.458
  3458.0     209.672
  3458.5     266.177
  3459.0      360.93
  3459.5     470.725
  3460.0     619.973
  3460.5       674.3
  3461.0     633.379
  3461.5     649.233
  3462.0     642.423
  3462.5     712.695
  3463.0     981.885
  3463.5     1436.47
  3464.0     1880.57
  3464.5     2514.69
  3465.0     2972.98
  3465.5     3211.42
  3466.0     3281.26
  3466.5     3077.79
  3467.0     2472.18
  3467.5     1977.05
  3468.0     1445.38
  3468.5     960.299
  3469.0     641.629
  3469.5     433.283
  3470.0     335.028
  3470.5     385.047
  3471.0     484.491
  3471.5      631.66
  3472.0     836.904
  3472.5     949.097
  3473.0    1002.217
  3473.5     1058.52
  3474.0     1099.11
  3474.5     1139.18
  3475.0     1208.52
  3475.5     1255.59
  3476.0     1413.22
  3476.5     1706.21
  3477.0      1974.1
  3477.5     2169.24
  3478.0     2355.08
  3478.5     2278.42
  3479.0     1915.25
  3479.5     1578.28
  3480.0      1230.7
  3480.5     883.296
  3481.0     707.125
  3481.5     699.881
  3482.0     659.773
  3482.5     644.871
  3483.0     637.039
  3483.5     608.737
  3484.0     547.705
  3484.5      556.96
  3485.0     618.128
  3485.5     693.955
  3486.0     770.399
  3486.5     855.391
  3487.0      973.45
  3487.5     1131.77
  3488.0     1285.46
  3488.5     1459.26
  3489.0     1628.19
  3489.5     1687.26
  3490.0     1646.65
  3490.5     1602.74
  3491.0     1516.63
  3491.5     1419.96
  3492.0      1355.3
  3492.5     1332.96
  3493.0     1244.01
  3493.5     1118.03
  3494.0     967.075
  3494.5     785.256
  3495.0      549.98
  3495.5     418.176
  3496.0     330.207
  3496.5      302.05
  3497.0     347.507
  3497.5     457.548
  3498.0     551.415
  3498.5     703.346
  3499.0     785.274
  3499.5     794.723
  3500.0     763.635
  3500.5     750.138
  3501.0     665.822
  3501.5     708.916
  3502.0     888.641
  3502.5     1092.12
  3503.0     1189.44
  3503.5     1290.03
  3504.0     1230.05
  3504.5     981.573
  3505.0     725.002
  3505.5     570.674
  3506.0       452.7
  3506.5     385.551
  3507.0     391.215
  3507.5     402.734
  3508.0     391.126
  3508.5     363.103
  3509.0      425.74
  3509.5     594.095
  3510.0     727.682
  3510.5     827.436
  3511.0     909.889
  3511.5      880.89
  3512.0     685.994
  3512.5     576.735
  3513.0     544.795
  3513.5      559.62
  3514.0     598.139
  3514.5     728.546
  3515.0     777.385
  3515.5     755.965
  3516.0     697.579
  3516.5     656.459
  3517.0     595.651
  3517.5     558.299
  3518.0     535.305
  3518.5     524.083
  3519.0     522.988
  3519.5     553.777
  3520.0     551.121
  3520.5     518.691
  3521.0     486.097
  3521.5     485.135
  3522.0     501.011
  3522.5     531.886
  3523.0     611.107
  3523.5     669.601
  3524.0     645.178
  3524.5     486.242
  3525.0     490.567
  3525.5     572.795
  3526.0     708.478
  3526.5     894.479
  3527.0     1247.23
  3527.5      1325.3
  3528.0      1205.2
  3528.5     1044.01
  3529.0     917.662
  3529.5     729.355
  3530.0     688.157
  3530.5     764.914
  3531.0     864.882
  3531.5     943.678
  3532.0     1023.75
  3532.5     1132.54
  3533.0      1244.4
  3533.5     1398.05
  3534.0     1621.52
  3534.5     1950.58
  3535.0     2142.51
  3535.5      2332.2
  3536.0     2394.84
  3536.5      2253.2
  3537.0     1835.02
  3537.5     1694.09
  3538.0     1633.12
  3538.5     1674.83
  3539.0     1849.61
  3539.5     2242.82
  3540.0     2397.52
  3540.5     2439.69
  3541.0     2435.61
  3541.5     2412.43
  3542.0     2335.93
  3542.5     2273.35
  3543.0     2223.69
  3543.5     2137.91
  3544.0      1981.3
  3544.5     1695.68
  3545.0     1584.65
  3545.5     1577.86
  3546.0     1608.35
  3546.5     1638.67
  3547.0     1772.73
  3547.5     1722.21
  3548.0     1511.71
  3548.5     1286.89
  3549.0     1166.35
  3549.5     1086.25
  3550.0     1048.39
  3550.5     1050.24
  3551.0     1095.63
  3551.5     1188.65
  3552.0      1332.4
  3552.5     1511.01
  3553.0     1798.48
  3553.5     2074.63
  3554.0     2152.05
  3554.5      2096.2
  3555.0     1968.57
  3555.5     1697.97
  3556.0     1364.16
  3556.5     1169.47
  3557.0     997.543
  3557.5     934.226
  3558.0     998.458
  3558.5     1151.47
  3559.0     1236.11
  3559.5     1405.59
  3560.0     1411.97
  3560.5     1231.36
  3561.0     901.449
  3561.5     691.814
  3562.0     419.674
  3562.5     295.288
  3563.0     355.941
  3563.5     589.333
  3564.0     767.526
  3564.5     986.809
  3565.0     1212.38
  3565.5     1436.08
  3566.0     1674.98
  3566.5      1887.2
  3567.0     2113.34
  3567.5     2296.31
  3568.0     2400.02
  3568.5     2434.92
  3569.0      2435.4
  3569.5     2388.14
  3570.0     2297.25
  3570.5     2167.91
  3571.0      1893.5
  3571.5     1781.68
  3572.0     1759.38
  3572.5     1816.43
  3573.0     1954.86
  3573.5     2315.09
  3574.0     2505.48
  3574.5     2560.67
  3575.0     2517.14
  3575.5     2390.02
  3576.0     2114.02
  3576.5     1840.61
  3577.0     1581.48
  3577.5     1292.19
  3578.0     1084.02
  3578.5     846.259
  3579.0     738.812
  3579.5     847.206
  3580.0     1239.81
  3580.5     1518.27
  3581.0     1897.87
  3581.5     2228.87
  3582.0     2304.92
  3582.5     2045.86
  3583.0     1969.82
  3583.5     1985.66
  3584.0     2052.85
  3584.5     2090.41
  3585.0     2175.62
  3585.5        2191
  3586.0     2114.54
  3586.5     1938.64
  3587.0     1896.74
  3587.5      1969.9
  3588.0     2006.98
  3588.5     1945.89
  3589.0        1810
  3589.5     1668.17
  3590.0     1417.92
  3590.5     1200.94
  3591.0     1208.21
  3591.5     1476.86
  3592.0     1636.18
  3592.5     1805.96
  3593.0     1971.16
  3593.5     1873.44
  3594.0     1415.22
  3594.5     1108.76
  3595.0    1003.066
  3595.5     1029.14
  3596.0     1100.45
  3596.5     1377.02
  3597.0     1586.14
  3597.5     1541.75
  3598.0     1142.53
  3598.5     1014.71
  3599.0     987.362
  3599.5      1037.8
  3600.0      1127.7
  3600.5     1440.76
  3601.0     1529.46
  3601.5     1370.65
  3602.0     972.789
  3602.5     781.682
  3603.0     580.109
  3603.5     488.534
  3604.0     565.033
  3604.5     804.307
  3605.0     1105.71
  3605.5     1580.95
  3606.0     2117.56
  3606.5     2447.63
  3607.0     2813.28
  3607.5     2881.11
  3608.0     2604.87
  3608.5     1955.71
  3609.0     1641.02
  3609.5     1381.69
  3610.0     1219.61
  3610.5     1175.67
  3611.0     1325.99
  3611.5     1400.39
  3612.0     1495.18
  3612.5     1596.66
  3613.0     1657.81
  3613.5     1733.13
  3614.0     1732.82
  3614.5     1640.71
  3615.0     1430.79
  3615.5     1343.43
  3616.0      1345.3
  3616.5     1328.71
  3617.0     1211.01
  3617.5     990.483
  3618.0     807.366
  3618.5     601.322
  3619.0     385.735
  3619.5     302.333
  3620.0     352.728
  3620.5     393.451
  3621.0     399.171
  3621.5     396.523
  3622.0     394.429
  3622.5      359.11
  3623.0     340.592
  3623.5     421.617
  3624.0     535.934
  3624.5     757.105
  3625.0     1114.53
  3625.5     1645.07
  3626.0     1945.08
  3626.5     2234.63
  3627.0     2364.61
  3627.5     2236.79
  3628.0     1661.04
  3628.5     1357.06
  3629.0     1125.94
  3629.5     954.231
  3630.0     949.242
  3630.5     1233.26
  3631.0     1415.19
  3631.5     1393.91
  3632.0     1127.92
  3632.5     1038.43
  3633.0     969.529
  3633.5     940.054
  3634.0    1002.802
  3634.5     1282.76
  3635.0     1402.25
  3635.5     1334.86
  3636.0     1070.43
  3636.5     897.016
  3637.0     672.925
  3637.5     466.686
  3638.0     379.698
  3638.5     419.381
  3639.0     434.242
  3639.5     441.834
  3640.0     465.746
  3640.5     450.139
  3641.0     397.159
  3641.5     341.362
  3642.0     316.212
  3642.5      265.64
  3643.0     294.902
  3643.5     381.394
  3644.0     513.209
  3644.5      743.31
  3645.0     1118.46
  3645.5     1503.31
  3646.0     1800.55
  3646.5     2211.47
  3647.0      2331.3
  3647.5     2195.83
  3648.0     1809.38
  3648.5     1575.44
  3649.0     1263.95
  3649.5     1033.01
  3650.0     979.857
  3650.5     1203.91
  3651.0        1254
  3651.5     1223.89
  3652.0     1132.58
  3652.5     1038.08
  3653.0     887.782
  3653.5      745.12
  3654.0       648.2
  3654.5     600.494
  3655.0     524.957
  3655.5     430.707
  3656.0     318.381
  3656.5     254.526
  3657.0     216.888
  3657.5     198.781
  3658.0     195.681
  3658.5      198.68
  3659.0     239.957
  3659.5       316.1
  3660.0     427.869
  3660.5     546.883
  3661.0     730.352
  3661.5     888.672
  3662.0     942.853
  3662.5     924.832
  3663.0      867.01
  3663.5     728.249
  3664.0     422.918
  3664.5     460.792
  3665.0     674.618
  3665.5     1030.74
  3666.0     1484.76
  3666.5     2375.05
  3667.0     2880.51
  3667.5     3026.76
  3668.0     2825.03
  3668.5     2630.21
  3669.0        2127
  3669.5      1574.6
  3670.0     1589.14
  3670.5     2026.99
  3671.0     2553.55
  3671.5     3134.63
  3672.0     4119.92
  3672.5     4636.81
  3673.0     4948.64
  3673.5     5079.84
  3674.0      5196.5
  3674.5     5221.18
  3675.0     5172.56
  3675.5     5057.95
  3676.0     4945.13
  3676.5     4628.11
  3677.0     4110.54
  3677.5     3367.21
  3678.0     2829.05
  3678.5     2266.43
  3679.0     1799.51
  3679.5     1547.68
  3680.0     1514.14
  3680.5     1521.23
  3681.0      1596.4
  3681.5     1850.45
  3682.0     1916.88
  3682.5        1945
  3683.0     1911.43
  3683.5     1746.76
  3684.0     1317.05
  3684.5      1006.7
  3685.0     900.745
  3685.5     914.814
  3686.0     1036.78
  3686.5      1341.7
  3687.0     1853.44
  3687.5     1994.12
  3688.0     1945.86
  3688.5     1789.45
  3689.0     1600.61
  3689.5     1167.91
  3690.0     930.549
  3690.5     867.018
  3691.0     1008.33
  3691.5     1061.01
  3692.0     1166.34
  3692.5     1287.99
  3693.0     1261.96
  3693.5     1093.69
  3694.0     926.496
  3694.5     815.467
  3695.0     713.344
  3695.5     632.727
  3696.0     575.731
  3696.5     552.797
  3697.0     497.737
  3697.5     417.981
  3698.0     338.497
  3698.5     308.645
  3699.0     326.611
  3699.5     341.293
  3700.0     344.503
  3700.5     367.863
  3701.0      351.61
  3701.5      301.73
  3702.0     211.292
  3702.5     182.937
  3703.0     167.404
  3703.5     180.788
  3704.0     244.594
  3704.5     386.659
  3705.0      512.18
  3705.5      614.96
  3706.0     695.783
  3706.5     798.612
  3707.0     897.842
  3707.5     988.956
  3708.0     1164.71
  3708.5     1464.21
  3709.0     1756.84
  3709.5     1886.04
  3710.0     1887.56
  3710.5     1875.33
  3711.0      1855.1
  3711.5     1726.53
  3712.0     1724.23
  3712.5     1819.67
  3713.0     2035.09
  3713.5     1978.12
  3714.0     1709.84
  3714.5     1382.11
  3715.0     1205.78
  3715.5     1039.76
  3716.0     964.091
  3716.5     987.834
  3717.0     1299.47
  3717.5     1326.03
  3718.0     1203.23
  3718.5     906.983
  3719.0     725.658
  3719.5     521.373
  3720.0     333.291
  3720.5     246.579
  3721.0     261.863
  3721.5     287.427
  3722.0     297.173
  3722.5     315.709
  3723.0     341.316
  3723.5     374.966
  3724.0     420.354
  3724.5     462.652
  3725.0     508.663
  3725.5     557.269
  3726.0     601.902
  3726.5     583.875
  3727.0      624.43
  3727.5     806.171
  3728.0     1167.33
  3728.5     1482.05
  3729.0     1759.07
  3729.5        2251
  3730.0     2316.15
  3730.5     2085.18
  3731.0     1494.55
  3731.5     1310.46
  3732.0      1204.4
  3732.5      1219.1
  3733.0     1437.04
  3733.5     2104.78
  3734.0     2587.26
  3734.5      2693.8
  3735.0     2448.19
  3735.5     2241.44
  3736.0     1998.33
  3736.5     1564.64
  3737.0     1366.09
  3737.5     1264.42
  3738.0     1257.97
  3738.5     1258.61
  3739.0        1315
  3739.5      1406.1
  3740.0     1504.28
  3740.5     1744.04
  3741.0     1849.75
  3741.5     1768.99
  3742.0     1445.56
  3742.5     1196.92
  3743.0     950.067
  3743.5     604.971
  3744.0     451.887
  3744.5     417.418
  3745.0     495.932
  3745.5     490.852
  3746.0     477.995
  3746.5     465.411
  3747.0      464.21
  3747.5      391.09
  3748.0     420.451
  3748.5      594.05
  3749.0     968.118
  3749.5     1281.36
  3750.0     1584.84
  3750.5      2090.3
  3751.0     2196.81
  3751.5     2042.73
  3752.0     1584.57
  3752.5     1450.61
  3753.0     1386.76
  3753.5     1399.46
  3754.0     1503.86
  3754.5     1851.57
  3755.0      2115.6
  3755.5     2133.45
  3756.0     1885.91
  3756.5     1708.53
  3757.0     1590.04
  3757.5     1461.94
  3758.0     1389.54
  3758.5     1360.64
  3759.0     1401.23
  3759.5     1387.36
  3760.0     1353.21
  3760.5     1304.06
  3761.0     1305.34
  3761.5     1332.75
  3762.0     1380.91
  3762.5     1442.44
  3763.0     1520.75
  3763.5     1616.81
  3764.0      1730.9
  3764.5     1925.99
  3765.0     2041.69
  3765.5     2093.42
  3766.0      2180.2
  3766.5     2073.74
  3767.0     1804.44
  3767.5     1224.57
  3768.0      1040.7
  3768.5    1002.467
  3769.0     1104.57
  3769.5     1264.11
  3770.0     1679.88
  3770.5     2102.36
  3771.0     2132.25
  3771.5     1758.63
  3772.0     1429.67
  3772.5     1334.84
  3773.0     1341.17
  3773.5     1415.41
  3774.0      1558.2
  3774.5     2060.54
  3775.0      2147.3
  3775.5     1998.94
  3776.0     1457.49
  3776.5     1169.32
  3777.0     879.308
  3777.5     568.544
  3778.0     430.397
  3778.5     410.331
  3779.0     487.381
  3779.5     573.689
  3780.0     720.146
  3780.5     907.036
  3781.0     1113.42
  3781.5      1416.7
  3782.0     1674.05
  3782.5      1843.5
  3783.0     1985.66
  3783.5     2047.65
  3784.0     2032.43
  3784.5     1942.47
  3785.0     1789.39
  3785.5     1554.99
  3786.0      986.82
  3786.5     898.142
  3787.0     1020.33
  3787.5      1392.8
  3788.0     1739.16
  3788.5      2288.6
  3789.0     2969.79
  3789.5     3180.56
  3790.0     3037.68
  3790.5        2753
  3791.0     2690.06
  3791.5     2701.75
  3792.0     2715.21
  3792.5     2686.72
  3793.0     2759.91
  3793.5     2673.75
  3794.0     2392.24
  3794.5     1735.35
  3795.0     1296.86
  3795.5     1007.42
  3796.0     819.926
  3796.5     697.075
  3797.0     655.642
  3797.5      801.81
  3798.0     798.076
  3798.5     758.125
  3799.0     663.489
  3799.5     622.815
  3800.0     591.385
  3800.5     569.709
  3801.0     573.545
  3801.5     585.516
  3802.0     618.154
  3802.5     706.838
  3803.0     870.868
  3803.5     1048.71
  3804.0     1174.19
  3804.5     1346.87
  3805.0     1438.78
  3805.5     1394.74
  3806.0     1098.77
  3806.5     918.542
  3807.0     888.941
  3807.5     948.767
  3808.0     1072.85
  3808.5     1263.89
  3809.0     1667.93
  3809.5     1902.09
  3810.0     2063.56
  3810.5      2013.1
  3811.0     2189.57
  3811.5     2457.54
  3812.0     2940.22
  3812.5      3156.9
  3813.0     3310.02
  3813.5     3428.37
  3814.0     3286.46
  3814.5     2877.88
  3815.0     2228.48
  3815.5     1888.96
  3816.0     1641.53
  3816.5     1468.17
  3817.0     1308.79
  3817.5     1222.26
  3818.0     1161.09
  3818.5     1056.64
  3819.0     933.955
  3819.5     814.205
  3820.0     712.732
  3820.5     614.088
  3821.0     530.181
  3821.5     465.021
  3822.0     400.989
  3822.5     370.347
  3823.0     376.071
  3823.5     418.519
  3824.0     481.382
  3824.5     565.802
  3825.0     707.146
  3825.5     819.471
  3826.0     919.205
  3826.5     1088.74
  3827.0     1123.36
  3827.5     1081.01
  3828.0     877.257
  3828.5     766.315
  3829.0      653.34
  3829.5      493.58
  3830.0     439.253
  3830.5     422.252
  3831.0     403.934
  3831.5     566.141
  3832.0     863.108
  3832.5      1321.7
  3833.0     1712.22
  3833.5     2199.94
  3834.0     2785.96
  3834.5      2999.2
  3835.0     2982.09
  3835.5     2770.59
  3836.0     2625.12
  3836.5      2385.6
  3837.0     2099.75
  3837.5     1919.36
  3838.0     1794.75
  3838.5     1694.76
  3839.0     1562.51
  3839.5     1401.18
  3840.0     1253.29
  3840.5     1168.19
  3841.0     1105.99
  3841.5     1088.83
  3842.0     1133.51
  3842.5     1264.84
  3843.0     1412.41
  3843.5     1541.17
  3844.0      1714.5
  3844.5     1853.94
  3845.0     1935.09
  3845.5     1974.55
  3846.0     1986.25
  3846.5     1972.56
  3847.0     1891.58
  3847.5     1832.39
  3848.0     1800.55
  3848.5     1775.88
  3849.0     1767.27
  3849.5      1774.5
  3850.0     1848.56
  3850.5     1861.43
  3851.0     1825.07
  3851.5     1689.29
  3852.0     1617.59
  3852.5     1585.35
  3853.0     1532.13
  3853.5     1573.77
  3854.0     1687.37
  3854.5     1971.92
  3855.0     2147.93
  3855.5     2281.77
  3856.0     2373.02
  3856.5     2463.31
  3857.0     2541.32
  3857.5     2544.34
  3858.0     2635.98
  3858.5     2767.12
  3859.0     3038.18
  3859.5     3164.94
  3860.0      3239.6
  3860.5     3236.93
  3861.0     3239.06
  3861.5     3217.47
  3862.0      3055.1
  3862.5     3074.34
  3863.0     3160.46
  3863.5     3418.38
  3864.0     3544.99
  3864.5     3650.15
  3865.0     3709.98
  3865.5     3796.24
  3866.0     3879.84
  3866.5     3916.05
  3867.0     4044.43
  3867.5     4218.94
  3868.0     4518.01
  3868.5     4690.18
  3869.0     4825.29
  3869.5      4878.6
  3870.0     4997.14
  3870.5      5123.4
  3871.0     5231.73
  3871.5     5407.99
  3872.0     5628.96
  3872.5     5986.42
  3873.0     6171.96
  3873.5     6295.42
  3874.0     6295.67
  3874.5     6378.31
  3875.0     6465.03
  3875.5     6545.54
  3876.0     6654.23
  3876.5     6781.32
  3877.0      6963.8
  3877.5     7080.57
  3878.0     7175.41
  3878.5     7226.51
  3879.0     7303.74
  3879.5     7388.56
  3880.0     7612.19
  3880.5     7567.88
  3881.0     7397.62
  3881.5     6860.83
  3882.0     6675.98
  3882.5     6576.81
  3883.0      6550.6
  3883.5     6633.92
  3884.0     6813.69
  3884.5     7483.89
  3885.0     7562.01
  3885.5     7443.34
  3886.0     6757.63
  3886.5     6510.43
  3887.0     6351.39
  3887.5     6246.46
  3888.0     6266.78
  3888.5     6389.01
  3889.0     6963.14
  3889.5     7057.47
  3890.0     6955.23
  3890.5     6484.88
  3891.0     6162.08
  3891.5     5845.03
  3892.0     5363.81
  3892.5     5101.79
  3893.0     4966.56
  3893.5     5087.63
  3894.0     5083.92
  3894.5     5032.21
  3895.0     5045.24
  3895.5     4913.67
  3896.0     4669.64
  3896.5      4179.1
  3897.0     3812.65
  3897.5     3534.84
  3898.0     3297.77
  3898.5     3109.02
  3899.0     2968.43
  3899.5      2917.6
  3900.0     2859.85
  3900.5     2789.19
  3901.0     2677.65
  3901.5     2625.35
  3902.0     2649.96
  3902.5     2756.22
  3903.0     2885.02
  3903.5     3017.12
  3904.0     3195.77
  3904.5     3372.82
  3905.0     3522.93
  3905.5     3667.44
  3906.0     3802.25
  3906.5     3923.97
  3907.0     3995.89
  3907.5     4078.56
  3908.0     4247.22
  3908.5     4434.48
  3909.0     4672.22
  3909.5     5024.36
  3910.0     5547.17
  3910.5     6155.64
  3911.0     6532.75
  3911.5     6872.52
  3912.0     7155.97
  3912.5     7179.74
  3913.0     6955.26
  3913.5     6458.79
  3914.0     6242.65
  3914.5     6065.48
  3915.0      5918.2
  3915.5      5858.5
  3916.0     5876.86
  3916.5     6036.86
  3917.0     6081.62
  3917.5     6110.91
  3918.0     6113.24
  3918.5     6123.98
  3919.0     6129.81
  3919.5     6103.62
  3920.0     6117.95
  3920.5     6147.82
  3921.0     6217.86
  3921.5     6262.58
  3922.0     6299.34
  3922.5      6331.2
  3923.0     6358.14
  3923.5     6380.19
  3924.0     6402.75
  3924.5     6413.29
  3925.0      6412.1
  3925.5      6396.2
  3926.0     6376.12
  3926.5     6353.72
  3927.0     6330.77
  3927.5     6298.92
  3928.0     6254.13
  3928.5     6207.06
  3929.0     6145.44
  3929.5     6056.75
  3930.0     5929.91
  3930.5     5787.74
  3931.0     5681.77
  3931.5     5587.94
  3932.0     5504.86
  3932.5     5421.65
  3933.0     5343.34
  3933.5     5269.87
  3934.0     5201.28
  3934.5     5137.56
  3935.0     5078.68
  3935.5     5024.67
  3936.0     4975.79
  3936.5      4938.1
  3937.0     4893.64
  3937.5     4849.16
  3938.0     4791.48
  3938.5     4755.03
  3939.0      4729.3
  3939.5     4719.25
  3940.0     4710.16
  3940.5      4704.6
  3941.0     4731.13
  3941.5     4728.04
  3942.0     4694.44
  3942.5     4639.19
  3943.0     4566.03
  3943.5     4476.17
  3944.0     4337.57
  3944.5     4201.81
  3945.0     4116.61
  3945.5      4061.9
  3946.0     4026.48
  3946.5      3981.9
  3947.0     3948.94
  3947.5     3926.35
  3948.0     3879.76
  3948.5     3818.73
  3949.0     3731.24
  3949.5      3683.9
  3950.0     3649.46
  3950.5     3626.74
  3951.0     3619.27
  3951.5     3625.72
  3952.0     3685.49
  3952.5     3696.79
  3953.0     3689.64
  3953.5     3673.46
  3954.0     3634.35
  3954.5     3574.06
  3955.0     3445.13
  3955.5     3352.29
  3956.0     3311.52
  3956.5     3309.88
  3957.0      3326.2
  3957.5     3345.74
  3958.0      3417.7
  3958.5     3494.79
  3959.0     3470.99
  3959.5     3380.44
  3960.0     3225.55
  3960.5     3124.06
  3961.0     3014.09
  3961.5     2866.13
  3962.0     2814.66
  3962.5     2805.54
  3963.0     2900.57
  3963.5     2934.27
  3964.0     2968.44
  3964.5     3017.98
  3965.0     3045.98
  3965.5      3060.4
  3966.0     3048.04
  3966.5     3044.11
  3967.0     3050.18
  3967.5        3060
  3968.0     3072.77
  3968.5     3088.05
  3969.0     3110.66
  3969.5     3135.03
  3970.0     3149.45
  3970.5     3155.33
  3971.0     3152.54
  3971.5     3169.35
  3972.0     3189.62
  3972.5     3195.82
  3973.0     3255.88
  3973.5     3342.84
  3974.0     3516.48
  3974.5      3620.9
  3975.0     3707.47
  3975.5     3810.37
  3976.0     3856.41
  3976.5     3854.39
  3977.0     3734.28
  3977.5     3655.34
  3978.0     3661.42
  3978.5     3727.82
  3979.0     3821.61
  3979.5     3899.15
  3980.0     4017.85
  3980.5     4165.88
  3981.0     4185.97
  3981.5     4136.95
  3982.0     3971.93
  3982.5     3893.01
  3983.0      3818.8
  3983.5     3720.51
  3984.0     3673.16
  3984.5     3651.48
  3985.0     3684.21
  3985.5     3700.88
  3986.0     3708.77
  3986.5     3713.44
  3987.0     3721.19
  3987.5     3734.33
  3988.0     3750.74
  3988.5     3770.43
  3989.0     3793.37
  3989.5     3819.38
  3990.0      3848.4
  3990.5      3881.7
  3991.0     3918.97
  3991.5     3962.95
  3992.0     4004.96
  3992.5     4048.37
  3993.0     4099.55
  3993.5     4142.68
  3994.0     4181.55
  3994.5     4219.73
  3995.0     4251.75
  3995.5     4276.97
  3996.0     4287.93
  3996.5     4298.27
  3997.0      4322.7
  3997.5     4350.84
  3998.0     4383.13
  3998.5     4426.45
  3999.0     4479.13
  3999.5     4549.76
  4000.0     4607.02
  4000.5     4663.34
  4001.0        4722
  4001.5      4774.8
  4002.0     4823.97
  4002.5     4866.26
  4003.0     4909.57
  4003.5     4954.54
  4004.0     4976.76
  4004.5     5011.82
  4005.0     5098.03
  4005.5     5211.88
  4006.0      5353.4
  4006.5     5522.52
  4007.0     5729.13
  4007.5     6061.71
  4008.0     6229.67
  4008.5     6347.06
  4009.0     6420.25
  4009.5     6433.74
  4010.0     6391.02
  4010.5        6200
  4011.0      6050.9
  4011.5     5986.48
  4012.0     5967.47
  4012.5     5976.88
  4013.0     5982.49
  4013.5     6005.11
  4014.0      6048.1
  4014.5     6083.86
  4015.0      6124.2
  4015.5     6154.97
  4016.0      6213.2
  4016.5     6285.37
  4017.0     6416.65
  4017.5     6503.78
  4018.0     6552.85
  4018.5     6554.59
  4019.0     6550.65
  4019.5     6573.16
  4020.0     6588.49
  4020.5     6600.41
  4021.0     6666.17
  4021.5     6762.36
  4022.0     6921.73
  4022.5     7040.33
  4023.0     7158.87
  4023.5     7308.14
  4024.0     7414.62
  4024.5     7491.66
  4025.0      7500.7
  4025.5     7527.13
  4026.0     7608.25
  4026.5     7722.99
  4027.0     7862.98
  4027.5     7987.64
  4028.0     8124.32
  4028.5     8312.88
  4029.0     8406.11
  4029.5     8463.14
  4030.0     8433.21
  4030.5     8439.96
  4031.0     8455.69
  4031.5     8410.64
  4032.0     8422.33
  4032.5      8532.5
  4033.0     8732.15
  4033.5     8995.92
  4034.0     9214.65
  4034.5     9457.84
  4035.0     9811.31
  4035.5      9962.8
  4036.0    10037.73
  4036.5     9967.06
  4037.0     9917.29
  4037.5     9854.04
  4038.0     9655.34
  4038.5     9523.55
  4039.0     9550.46
  4039.5     9694.02
  4040.0     9934.38
  4040.5    10120.53
  4041.0       10335
  4041.5     10702.5
  4042.0       10838
  4042.5     10892.8
  4043.0     10777.9
  4043.5     10699.9
  4044.0     10633.2
  4044.5    10516.68
  4045.0    10410.48
  4045.5    10364.79
  4046.0    10345.94
  4046.5    10353.85
  4047.0    10388.56
  4047.5    10450.05
  4048.0     10580.8
  4048.5     10671.2
  4049.0     10760.2
  4049.5     10896.9
  4050.0     10979.9
  4050.5       11001
  4051.0     10952.8
  4051.5     10869.5
  4052.0       10827
  4052.5     10777.2
  4053.0     10693.5
  4053.5     10686.2
  4054.0       10710
  4054.5     10827.9
  4055.0     10888.8
  4055.5       10924
  4056.0     10958.8
  4056.5     10970.4
  4057.0       10945
  4057.5     10876.3
  4058.0     10762.2
  4058.5     10701.8
  4059.0     10650.3
  4059.5     10593.4
  4060.0     10567.6
  4060.5       10560
  4061.0     10559.8
  4061.5     10588.3
  4062.0     10648.5
  4062.5     10738.1
  4063.0     10854.5
  4063.5     10988.1
  4064.0     11148.1
  4064.5     11378.2
  4065.0     11540.1
  4065.5     11688.9
  4066.0     11836.1
  4066.5     11955.5
  4067.0     12049.1
  4067.5     12095.4
  4068.0     12129.6
  4068.5     12202.1
  4069.0     12284.5
  4069.5     12380.3
  4070.0     12474.2
  4070.5     12572.4
  4071.0     12643.6
  4071.5     12762.3
  4072.0     12913.8
  4072.5       13108
  4073.0     13318.1
  4073.5     13521.9
  4074.0     13755.3
  4074.5       14044
  4075.0     14205.8
  4075.5     14319.5
  4076.0     14306.2
  4076.5     14358.3
  4077.0     14426.4
  4077.5     14498.8
  4078.0     14575.6
  4078.5     14656.8
  4079.0     14749.6
  4079.5     14858.9
  4080.0     14931.7
  4080.5     14991.4
  4081.0     14964.1
  4081.5     15031.9
  4082.0     15143.4
  4082.5     15325.3
  4083.0       15514
  4083.5     15675.4
  4084.0       15863
  4084.5       16092
  4085.0     16178.3
  4085.5     16203.9
  4086.0     16068.2
  4086.5       16018
  4087.0     15984.7
  4087.5     15925.3
  4088.0     15892.9
  4088.5     15919.9
  4089.0     15996.8
  4089.5     16138.6
  4090.0     16222.1
  4090.5     16301.4
  4091.0     16376.3
  4091.5     16446.9
  4092.0     16513.2
  4092.5     16550.6
  4093.0     16598.8
  4093.5     16691.5
  4094.0     16816.5
  4094.5     16996.9
  4095.0       17114
  4095.5     17218.1
  4096.0     17346.4
  4096.5     17412.7
  4097.0     17431.2
  4097.5     17374.7
  4098.0     17292.8
  4098.5     17257.8
  4099.0     17225.6
  4099.5     17186.5
  4100.0     17173.9
  4100.5     17174.1
  4101.0     17198.6
  4101.5     17222.5
  4102.0     17246.5
  4102.5     17274.8
  4103.0     17307.3
  4103.5     17344.2
  4104.0     17385.3
  4104.5     17438.1
  4105.0     17483.5
  4105.5     17528.8
  4106.0     17579.1
  4106.5     17624.8
  4107.0     17663.2
  4107.5     17682.6
  4108.0     17680.3
  4108.5     17743.6
  4109.0     17832.5
  4109.5     17987.1
  4110.0       18110
  4110.5     18227.4
  4111.0     18368.8
  4111.5     18496.8
  4112.0     18575.7
  4112.5       18621
  4113.0     18600.1
  4113.5     18640.7
  4114.0     18689.8
  4114.5     18753.1
  4115.0     18818.2
  4115.5     18885.4
  4116.0     18968.2
  4116.5     19058.1
  4117.0     19115.1
  4117.5     19159.3
  4118.0     19154.9
  4118.5     19192.7
  4119.0     19240.4
  4119.5       19292
  4120.0     19355.6
  4120.5     19435.4
  4121.0       19532
  4121.5     19653.8
  4122.0     19756.7
  4122.5     19859.6
  4123.0     19968.6
  4123.5       20070
  4124.0     20165.4
  4124.5     20250.5
  4125.0     20330.8
  4125.5     20425.1
  4126.0     20523.7
  4126.5     20648.4
  4127.0     20743.8
  4127.5     20830.1
  4128.0       20890
  4128.5       20955
  4129.0     21042.4
  4129.5     21141.9
  4130.0     21263.5
  4130.5     21361.5
  4131.0     21455.3
  4131.5     21527.7
  4132.0     21616.3
  4132.5     21719.5
  4133.0       21831
  4133.5     21950.9
  4134.0     22079.2
  4134.5     22215.9
  4135.0     22374.8
  4135.5     22522.2
  4136.0       22668
  4136.5     22809.9
  4137.0     22953.8
  4137.5     23105.8
  4138.0     23263.1
  4138.5       23437
  4139.0     23592.7
  4139.5     23744.2
  4140.0     23891.5
  4140.5     24034.6
  4141.0     24173.6
  4141.5     24308.5
  4142.0     24439.2
  4142.5     24565.7
  4143.0       24688
  4143.5       24788
  4144.0     24906.4
  4144.5     25038.4
  4145.0     25181.6
  4145.5       25334
  4146.0     25485.4
  4146.5     25640.9
  4147.0     25807.5
  4147.5     25968.3
  4148.0     26128.4
  4148.5     26273.5
  4149.0     26424.3
  4149.5     26608.7
  4150.0     26809.9
  4150.5       27042
  4151.0     27267.6
  4151.5     27501.5
  4152.0     27748.2
  4152.5     27999.7
  4153.0     28251.9
  4153.5     28510.3
  4154.0     28783.1
  4154.5     29038.3
  4155.0     29289.4
  4155.5     29525.7
  4156.0     29768.8
  4156.5     30021.4
  4157.0     30281.7
  4157.5       30553
  4158.0     30807.9
  4158.5     31058.6
  4159.0     31293.3
  4159.5     31538.2
  4160.0     31791.1
  4160.5     32045.5
  4161.0     32302.4
  4161.5     32572.9
  4162.0     32851.8
  4162.5     33132.4
  4163.0     33429.8
  4163.5     33740.9
  4164.0     34064.1
  4164.5     34399.7
  4165.0     34747.5
  4165.5     35107.5
  4166.0     35452.1
  4166.5     35848.2
  4167.0     36276.1
  4167.5     36736.2
  4168.0     37224.2
  4168.5     37732.3
  4169.0     38264.8
  4169.5     38843.7
  4170.0     39414.9
  4170.5       39997
  4171.0       40572
  4171.5     41167.2
  4172.0     41816.1
  4172.5     42497.6
  4173.0     43189.2
  4173.5     43948.2
  4174.0       44752
  4174.5       45547
  4175.0     46416.6
  4175.5     47434.8
  4176.0     48545.8
  4176.5     49605.9
  4177.0     51004.2
  4177.5     52584.6
  4178.0     54109.6
  4178.5     55968.3
  4179.0     58438.7
  4179.5     61335.7
  4180.0     65044.4
  4180.5     68477.9
  4181.0     72073.4
  4181.5       75875
  4182.0     79809.9
  4182.5     83828.8
  4183.0     87951.3
  4183.5     91929.7
  4184.0     96481.8
  4184.5    101315.1
  4185.0      106872
  4185.5      112416
  4186.0      117473
  4186.5      122420
  4187.0      127450
  4187.5      132019
  4188.0      136345
  4188.5      140560
  4189.0      144452
  4189.5      147868
  4190.0      150918
  4190.5      153464
  4191.0      155877
  4191.5      158008
  4192.0      159609
  4192.5      161065
  4193.0      162717
  4193.5      164329
  4194.0      166128
  4194.5      167541
  4195.0      168793
  4195.5      169806
  4196.0      170691
  4196.5      171581
  4197.0      172390
  4197.5      173045
  4198.0      173729
  4198.5      174376
  4199.0      174948
  4199.5      175487
  4200.0      176072
  4200.5      176656
  4201.0      177311
  4201.5      177867
  4202.0      178376
  4202.5      178844
  4203.0      179274
  4203.5      179663
  4204.0      180012
  4204.5      180256
  4205.0      180545
  4205.5      180848
  4206.0      181151
  4206.5      181454
  4207.0      181757
  4207.5      182060
  4208.0      182423
  4208.5      182716
  4209.0      182949
  4209.5      183124
  4210.0      183224
  4210.5      183387
  4211.0      183549
  4211.5      183657
  4212.0      183820
  4212.5      184048
  4213.0      184337
  4213.5      184771
  4214.0      185030
  4214.5      185249
  4215.0      185381
  4215.5      185509
  4216.0      185671
  4216.5      185832
  4217.0      185920
  4217.5      186122
  4218.0      186364
  4218.5      186721
  4219.0      187094
  4219.5      187339
  4220.0      187544
  4220.5      187641
  4221.0      187795
  4221.5      187957
  4222.0      188092
  4222.5      188214
  4223.0      188429
  4223.5      188683
  4224.0      189099
  4224.5      189410
  4225.0      189643
  4225.5      189820
  4226.0      189919
  4226.5      190082
  4227.0      190244
  4227.5      190407
  4228.0      190569
  4228.5      190732
  4229.0      190894
  4229.5      191057
  4230.0      191220
  4230.5      191382
  4231.0      191506
  4231.5      191644
  4232.0      191864
  4232.5      192123
  4233.0      192561
  4233.5      192846
  4234.0      193075
  4234.5      193239
  4235.0      193346
  4235.5      193508
  4236.0      193671
  4236.5      193834
  4237.0      193996
  4237.5      194159
  4238.0      194321
  4238.5      194484
  4239.0      194646
  4239.5      194809
  4240.0      194928
  4240.5      195073
  4241.0      195295
  4241.5      195556
  4242.0      196002
  4242.5      196278
  4243.0      196505
  4243.5      196665
  4244.0      196774
  4244.5      196937
  4245.0      197100
  4245.5      197262
  4246.0      197425
  4246.5      197587
  4247.0      197750
  4247.5      197913
  4248.0      198075
  4248.5      198238
  4249.0      198358
  4249.5      198501
  4250.0      198722
  4250.5      198982
  4251.0      199493
  4251.5      199749
  4252.0      199905
  4252.5      199910
  4253.0      199773
  4253.5      199846
  4254.0      199958
  4254.5      200162
  4255.0      200352
  4255.5      200515
  4256.0      200673
  4256.5      200763
  4257.0      200966
  4257.5      201207
  4258.0      201522
  4258.5      201871
  4259.0      202173
  4259.5      202474
  4260.0      202840
  4260.5      203128
  4261.0      203361
  4261.5      203541
  4262.0      203638
  4262.5      203800
  4263.0      203963
  4263.5      204126
  4264.0      204289
  4264.5      204452
  4265.0      204614
  4265.5      204706
  4266.0      204894
  4266.5      205129
  4267.0      205445
  4267.5      205857
  4268.0      206111
  4268.5      206326
  4269.0      206454
  4269.5      206584
  4270.0      206747
  4270.5      206910
  4271.0      206997
  4271.5      207194
  4272.0      207431
  4272.5      207760
  4273.0      208160
  4273.5      208412
  4274.0      208625
  4274.5      208746
  4275.0      208881
  4275.5      209044
  4276.0      209207
  4276.5      209370
  4277.0      209532
  4277.5      209695
  4278.0      209829
  4278.5      209952
  4279.0      210166
  4279.5      210418
  4280.0      210819
  4280.5      211147
  4281.0      211384
  4281.5      211582
  4282.0      211668
  4282.5      211831
  4283.0      211994
  4283.5      212127
  4284.0      212251
  4284.5      212464
  4285.0      212716
  4285.5      213172
  4286.0      213502
  4286.5      213676
  4287.0      213773
  4287.5      213487
  4288.0      213588
  4288.5      213764
  4289.0      214098
  4289.5      214551
  4290.0      214802
  4290.5      215015
  4291.0      215084
  4291.5      215213
  4292.0      215438
  4292.5      215700
  4293.0      216153
  4293.5      216423
  4294.0      216650
  4294.5      216793
  4295.0      216849
  4295.5      217059
  4296.0      217308
  4296.5      217690
  4297.0      218038
  4297.5      218280
  4298.0      218484
  4298.5      218580
  4299.0      218734
  4299.5      218897
  4300.0      219060
  4300.5      219223
  4301.0      219386
  4301.5      219549
  4302.0      219671
  4302.5      219811
  4303.0      220030
  4303.5      220285
  4304.0      220707
  4304.5      221013
  4305.0      221247
  4305.5      221436
  4306.0      221527
  4306.5      221690
  4307.0      221853
  4307.5      222016
  4308.0      222179
  4308.5      222343
  4309.0      222506
  4309.5      222669
  4310.0      222832
  4310.5      222995
  4311.0      223158
  4311.5      223321
  4312.0      223485
  4312.5      223648
  4313.0      223791
  4313.5      223900
  4314.0      224109
  4314.5      224355
  4315.0      224722
  4315.5      225086
  4316.0      225330
  4316.5      225538
  4317.0      225646
  4317.5      225791
  4318.0      225954
  4318.5      226117
  4319.0      226280
  4319.5      226444
  4320.0      226607
  4320.5      226770
  4321.0      226933
  4321.5      227096
  4322.0      227260
  4322.5      227423
  4323.0      227586
  4323.5      227749
  4324.0      227912
  4324.5      228075
  4325.0      228239
  4325.5      228402
  4326.0      228565
  4326.5      228728
  4327.0      228892
  4327.5      229055
  4328.0      229218
  4328.5      229381
  4329.0      229545
  4329.5      229708
  4330.0      229871
  4330.5      230034
  4331.0      230197
  4331.5      230361
  4332.0      230524
  4332.5      230687
  4333.0      230850
  4333.5      231023
  4334.0      231254
  4334.5      231377
  4335.0      231463
  4335.5      231454
  4336.0      231386
  4336.5      231462
  4337.0      231574
  4337.5      231771
  4338.0      231969
  4338.5      232132
  4339.0      232295
  4339.5      232526
  4340.0      232674
  4340.5      232771
  4341.0      232821
  4341.5      232699
  4342.0      232765
  4342.5      232866
  4343.0      233003
  4343.5      233177
  4344.0      233386
  4344.5      233632
  4345.0      234000
  4345.5      234363
  4346.0      234608
  4346.5      234816
  4347.0      234928
  4347.5      235069
  4348.0      235232
  4348.5      235395
  4349.0      235635
  4349.5      235768
  4350.0      235861
  4350.5      235888
  4351.0      235786
  4351.5      235855
  4352.0      235960
  4352.5      236134
  4353.0      236348
  4353.5      236512
  4354.0      236675
  4354.5      236838
  4355.0      237001
  4355.5      237164
  4356.0      237327
  4356.5      237490
  4357.0      237654
  4357.5      237817
  4358.0      237980
  4358.5      238143
  4359.0      238306
  4359.5      238469
  4360.0      238649
  4360.5      238871
  4361.0      238991
  4361.5      239075
  4362.0      239090
  4362.5      239067
  4363.0      239095
  4363.5      239122
  4364.0      239100
  4364.5      239113
  4365.0      239198
  4365.5      239317
  4366.0      239602
  4366.5      239774
  4367.0      239874
  4367.5      239938
  4368.0      239966
  4368.5      239960
  4369.0      239917
  4369.5      239800
  4370.0      239494
  4370.5      239468
  4371.0      239512
  4371.5      239741
  4372.0      240104
  4372.5      240173
  4373.0      240170
  4373.5      240183
  4374.0      240087
  4374.5      239767
  4375.0      239304
  4375.5      238474
  4376.0      237715
  4376.5      237066
  4377.0      236417
  4377.5      235350
  4378.0      234802
  4378.5      234544
  4379.0      234500
  4379.5      234823
  4380.0      235128
  4380.5      235574
  4381.0      236253
  4381.5      237349
  4382.0      237969
  4382.5      238518
  4383.0      238881
  4383.5      239115
  4384.0      239641
  4384.5      240238
  4385.0      241156
  4385.5      242048
  4386.0      242540
  4386.5      242893
  4387.0      242996
  4387.5      243053
  4388.0      243100
  4388.5      243077
  4389.0      242655
  4389.5      242543
  4390.0      242624
  4390.5      242810
  4391.0      243484
  4391.5      243741
  4392.0      243903
  4392.5      243959
  4393.0      243621
  4393.5      243762
  4394.0      244008
  4394.5      244455
  4395.0      245194
  4395.5      245541
  4396.0      245818
  4396.5      246025
  4397.0      246162
  4397.5      246230
  4398.0      246229
  4398.5      245948
  4399.0      245676
  4399.5      245725
  4400.0      245878
  4400.5      246502
  4401.0      246942
  4401.5      247014
  4402.0      246947
  4402.5      246118
  4403.0      245812
  4403.5      245934
  4404.0      246264
  4404.5      247518
  4405.0      248079
  4405.5      248386
  4406.0      248554
  4406.5      248584
  4407.0      248476
  4407.5      248230
  4408.0      247766
  4408.5      246608
  4409.0      246290
  4409.5      246143
  4410.0      246225
  4410.5      246599
  4411.0      246845
  4411.5      247160
  4412.0      247654
  4412.5      248292
  4413.0      248631
  4413.5      248902
  4414.0      249104
  4414.5      249237
  4415.0      249301
  4415.5      249296
  4416.0      249087
  4416.5      248878
  4417.0      248825
  4417.5      248806
  4418.0      248927
  4418.5      248999
  4419.0      248971
  4419.5      248909
  4420.0      248813
  4420.5      248682
  4421.0      248518
  4421.5      248319
  4422.0      247814
  4422.5      247593
  4423.0      247539
  4423.5      247588
  4424.0      247591
  4424.5      247889
  4425.0      248375
  4425.5      249032
  4426.0      251068
  4426.5      251584
  4427.0      251737
  4427.5      251521
  4428.0      250618
  4428.5      249931
  4429.0      249073
  4429.5      247895
  4430.0      245898
  4430.5      244995
  4431.0      244331
  4431.5      243981
  4432.0      244026
  4432.5      243911
  4433.0      243897
  4433.5      244085
  4434.0      244478
  4434.5      244595
  4435.0      244679
  4435.5      244820
  4436.0      244965
  4436.5      244809
  4437.0      244518
  4437.5      243946
  4438.0      243241
  4438.5      242735
  4439.0      242229
  4439.5      241558
  4440.0      240936
  4440.5      240630
  4441.0      240459
  4441.5      240423
  4442.0      240522
  4442.5      240756
  4443.0      241126
  4443.5      242032
  4444.0      242800
  4444.5      243146
  4445.0      243357
  4445.5      243542
  4446.0      243505
  4446.5      243202
  4447.0      242697
  4447.5      241585
  4448.0      240642
  4448.5      239927
  4449.0      239245
  4449.5      238536
  4450.0      237922
  4450.5      237400
  4451.0      236945
  4451.5      236492
  4452.0      236176
  4452.5      235981
  4453.0      235886
  4453.5      236027
  4454.0      236116
  4454.5      236202
  4455.0      236322
  4455.5      236685
  4456.0      236834
  4456.5      236871
  4457.0      236841
  4457.5      236529
  4458.0      236414
  4458.5      236370
  4459.0      236359
  4459.5      237119
  4460.0      236984
  4460.5      236445
  4461.0      235607
  4461.5      233036
  4462.0      232008
  4462.5      231474
  4463.0      231274
  4463.5      231559
  4464.0      231977
  4464.5      232647
  4465.0      233582
  4465.5      236262
  4466.0      237249
  4466.5      237761
  4467.0      237908
  4467.5      237375
  4468.0      236898
  4468.5      236207
  4469.0      235285
  4469.5      233181
  4470.0      232123
  4470.5      231280
  4471.0      230604
  4471.5      229934
  4472.0      229644
  4472.5      229593
  4473.0      229774
  4473.5      231219
  4474.0      231504
  4474.5      231539
  4475.0      231376
  4475.5      230618
  4476.0      230195
  4476.5      229759
  4477.0      229291
  4477.5      229341
  4478.0      228623
  4478.5      227607
  4479.0      226328
  4479.5      224162
  4480.0      222555
  4480.5      220994
  4481.0      219434
  4481.5      217181
  4482.0      215827
  4482.5      214834
  4483.0      214137
  4483.5      214341
  4484.0      214069
  4484.5      213759
  4485.0      213482
  4485.5      215162
  4486.0      214483
  4486.5      212703
  4487.0      210105
  4487.5      204882
  4488.0      201018
  4488.5      197479
  4489.0      193943
  4489.5      189147
  4490.0      185815
  4490.5      183351
  4491.0      181475
  4491.5      183422
  4492.0      182366
  4492.5      179445
  4493.0      175546
  4493.5      169247
  4494.0      163456
  4494.5      157880
  4495.0      152046
  4495.5      141896
  4496.0      135417
  4496.5      132485
  4497.0      131440
  4497.5      134076
  4498.0      137027
  4498.5      139957
  4499.0      143764
  4499.5      150883
  4500.0      157023
  4500.5      161089
  4501.0      164570
  4501.5      166368
  4502.0      168267
  4502.5      171120
  4503.0      174100
  4503.5      176892
  4504.0      179955
  4504.5      183669
  4505.0      187740
  4505.5      193827
  4506.0      199930
  4506.5      203132
  4507.0      205362
  4507.5      206094
  4508.0      205797
  4508.5      205798
  4509.0      205314
  4509.5      203609
  4510.0      200986
  4510.5      200127
  4511.0      199589
  4511.5      199445
  4512.0      199717
  4512.5      200024
  4513.0      200557
  4513.5      201417
  4514.0      202778
  4514.5      203756
  4515.0      204767
  4515.5      205943
  4516.0      207946
  4516.5      208588
  4517.0      208844
  4517.5      208696
  4518.0      207701
  4518.5      207001
  4519.0      206108
  4519.5      205023
  4520.0      201660
  4520.5      200870
  4521.0      200833
  4521.5      201437
  4522.0      203050
  4522.5      204858
  4523.0      207084
  4523.5      209789
  4524.0      215901
  4524.5      219366
  4525.0      221018
  4525.5      221743
  4526.0      221189
  4526.5      220021
  4527.0      218290
  4527.5      215827
  4528.0      210553
  4528.5      205855
  4529.0      203255
  4529.5      201228
  4530.0      199901
  4530.5      199112
  4531.0      198664
  4531.5      198692
  4532.0      199723
  4532.5      201396
  4533.0      202158
  4533.5      202888
  4534.0      203703
  4534.5      204649
  4535.0      205084
  4535.5      205328
  4536.0      205409
  4536.5      205410
  4537.0      205011
  4537.5      204359
  4538.0      203443
  4538.5      201960
  4539.0      200678
  4539.5      199270
  4540.0      197735
  4540.5      195144
  4541.0      193602
  4541.5      192412
  4542.0      191475
  4542.5      190925
  4543.0      190482
  4543.5      190190
  4544.0      190087
  4544.5      191263
  4545.0      191727
  4545.5      191199
  4546.0      190263
  4546.5      188178
  4547.0      186011
  4547.5      184613
  4548.0      183310
  4548.5      181999
  4549.0      180759
  4549.5      179870
  4550.0      179169
  4550.5      178967
  4551.0      179448
  4551.5      178764
  4552.0      177828
  4552.5      176538
  4553.0      174295
  4553.5      172988
  4554.0      171776
  4554.5      170658
  4555.0      171262
  4555.5      169809
  4556.0      167747
  4556.5      165153
  4557.0      161120
  4557.5      157563
  4558.0      154108
  4558.5      150530
  4559.0      144428
  4559.5      140143
  4560.0      138352
  4560.5      137748
  4561.0      139463
  4561.5      142002
  4562.0      143744
  4562.5      145860
  4563.0      149294
  4563.5      153708
  4564.0      155621
  4564.5      156910
  4565.0      157665
  4565.5      158113
  4566.0      157318
  4566.5      155715
  4567.0      153304
  4567.5      146283
  4568.0      143624
  4568.5      141578
  4569.0      140121
  4569.5      139680
  4570.0      139346
  4570.5      139318
  4571.0      139693
  4571.5      143241
  4572.0      145016
  4572.5      144107
  4573.0      142084
  4573.5      137712
  4574.0      132454
  4574.5      128443
  4575.0      124250
  4575.5      118978
  4576.0      112439
  4576.5      109108
  4577.0      106702
  4577.5    105377.5
  4578.0      106341
  4578.5      106041
  4579.0      106050
  4579.5      106367
  4580.0      110228
  4580.5      110410
  4581.0      109201
  4581.5      107008
  4582.0      100950
  4582.5     96514.7
  4583.0     93821.1
  4583.5     91589.6
  4584.0     89376.3
  4584.5       87769
  4585.0     87378.2
  4585.5     87754.8
  4586.0     90578.3
  4586.5     95903.3
  4587.0       96046
  4587.5     94992.7
  4588.0     92488.1
  4588.5     86444.7
  4589.0     82934.1
  4589.5     79271.3
  4590.0     75456.3
  4590.5     67787.6
  4591.0     64398.8
  4591.5     62927.5
  4592.0     62801.6
  4592.5     66569.7
  4593.0     69617.6
  4593.5     71300.6
  4594.0     72982.7
  4594.5     76538.5
  4595.0     79996.7
  4595.5     79578.6
  4596.0     77697.4
  4596.5     72964.1
  4597.0     63597.9
  4597.5     60013.1
  4598.0     57184.4
  4598.5       55111
  4599.0     52812.8
  4599.5     52577.5
  4600.0     53466.6
  4600.5     55461.5
  4601.0     63490.1
  4601.5     67672.2
  4602.0     69017.1
  4602.5     69202.5
  4603.0     67007.6
  4603.5       64138
  4604.0     62064.4
  4604.5       59636
  4605.0       55766
  4605.5     50214.1
  4606.0     48403.1
  4606.5       47556
  4607.0     47763.1
  4607.5     51334.6
  4608.0     52427.5
  4608.5     53565.5
  4609.0     54748.4
  4609.5     58900.5
  4610.0     59995.9
  4610.5     59029.8
  4611.0     56828.5
  4611.5     50020.3
  4612.0     43532.1
  4612.5     40889.8
  4613.0     39141.4
  4613.5       38308
  4614.0     38392.9
  4614.5     39284.9
  4615.0     41041.1
  4615.5     43809.5
  4616.0     54056.2
  4616.5       55931
  4617.0     56243.8
  4617.5     54996.9
  4618.0     48202.2
  4618.5       43878
  4619.0     41103.7
  4619.5     38563.7
  4620.0     33244.6
  4620.5     29051.3
  4621.0     30268.4
  4621.5     33766.3
  4622.0     41520.6
  4622.5     55743.9
  4623.0     62462.5
  4623.5     68492.6
  4624.0     73834.2
  4624.5     84658.1
  4625.0     86880.8
  4625.5     85778.6
  4626.0     81737.4
  4626.5     68375.3
  4627.0       57336
  4627.5     49835.7
  4628.0     42616.3
  4628.5     33416.6
  4629.0     23903.3
  4629.5     20199.4
  4630.0     18714.3
  4630.5       20030
  4631.0     28021.6
  4631.5     31025.4
  4632.0     34269.6
  4632.5     37753.8
  4633.0     45552.5
  4633.5       49159
  4634.0     50288.5
  4634.5       49955
  4635.0     45431.4
  4635.5     40461.7
  4636.0     38399.8
  4636.5     36635.2
  4637.0     34847.3
  4637.5     32631.5
  4638.0     32350.7
  4638.5     32856.1
  4639.0     34147.2
  4639.5     39917.9
  4640.0     41908.2
  4640.5       42929
  4641.0     43360.3
  4641.5     42244.7
  4642.0     41177.4
  4642.5     40682.4
  4643.0     40122.3
  4643.5     39347.9
  4644.0     38352.5
  4644.5     37810.8
  4645.0     37369.8
  4645.5     37029.2
  4646.0     37095.2
  4646.5     36858.5
  4647.0     36608.8
  4647.5     36353.2
  4648.0     37297.5
  4648.5     37265.2
  4649.0     35994.1
  4649.5     34117.1
  4650.0     30798.5
  4650.5     26363.5
  4651.0     23737.3
  4651.5     21305.2
  4652.0     19029.1
  4652.5     13510.2
  4653.0     12861.9
  4653.5       13598
  4654.0     15717.2
  4654.5     22498.5
  4655.0     27879.8
  4655.5     31494.3
  4656.0     34910.3
  4656.5     38615.4
  4657.0       42388
  4657.5     44609.3
  4658.0     46183.4
  4658.5     47099.2
  4659.0     45713.2
  4659.5     45915.2
  4660.0     46035.1
  4660.5     46073.2
  4661.0     47983.5
  4661.5     48231.9
  4662.0     46431.1
  4662.5     43590.7
  4663.0     38514.5
  4663.5     31442.9
  4664.0     27069.7
  4664.5     22865.1
  4665.0     18828.4
  4665.5     12709.7
  4666.0     9666.21
  4666.5     7647.87
  4667.0     6569.97
  4667.5     8024.92
  4668.0     9343.02
  4668.5     9731.73
  4669.0    10219.08
  4669.5     9832.46
  4670.0     8008.08
  4670.5    10322.38
  4671.0     13958.2
  4671.5     18915.2
  4672.0       28405
  4672.5     35371.4
  4673.0     42049.6
  4673.5     48857.4
  4674.0     58541.4
  4674.5     67268.7
  4675.0     71928.2
  4675.5     75044.5
  4676.0     75355.2
  4676.5     68893.7
  4677.0     70420.2
  4677.5     73045.4
  4678.0     76767.3
  4678.5     86368.7
  4679.0     92171.9
  4679.5     95651.4
  4680.0     98235.4
  4680.5    102748.9
  4681.0      106926
  4681.5    103686.2
  4682.0     97304.7
  4682.5     87632.8
  4683.0     62370.4
  4683.5     50815.7
  4684.0     40324.2
  4684.5       30896
  4685.0     19735.6
  4685.5     11602.8
  4686.0     7667.97
  4686.5     6218.47
  4687.0     8960.68
  4687.5       17465
  4688.0     20632.4
  4688.5     23979.7
  4689.0     27506.7
  4689.5     33941.5
  4690.0     37511.4
  4690.5     39655.2
  4691.0     40929.9
  4691.5     39813.3
  4692.0     37863.3
  4692.5     38103.9
  4693.0     38570.7
  4693.5       39236
  4694.0     39343.9
  4694.5     40772.5
  4695.0     42701.6
  4695.5     45130.5
  4696.0     50390.9
  4696.5     54515.6
  4697.0     56535.3
  4697.5     57877.6
  4698.0     58850.1
  4698.5     59855.4
  4699.0     58625.1
  4699.5     56271.1
  4700.0     52794.7
  4700.5     43134.8
  4701.0     37675.8
  4701.5     34456.7
  4702.0     32135.5
  4702.5     29514.3
  4703.0     27379.6
  4703.5     29101.7
  4704.0     32706.1
  4704.5     38192.6
  4705.0     54092.7
  4705.5     61086.6
  4706.0     66597.1
  4706.5     71103.4
  4707.0     76347.4
  4707.5       79920
  4708.0     79849.3
  4708.5     77743.8
  4709.0     72853.2
  4709.5     59275.8
  4710.0     53955.6
  4710.5     49260.7
  4711.0     45191.2
  4711.5       39556
  4712.0     36216.7
  4712.5     35755.6
  4713.0     36968.8
  4713.5       41357
  4714.0     50996.2
  4714.5     54576.2
  4715.0     57633.2
  4715.5     60167.4
  4716.0     64699.9
  4716.5     66210.7
  4717.0     65360.5
  4717.5     62957.2
  4718.0     57151.3
  4718.5     48213.1
  4719.0     43512.8
  4719.5     39061.8
  4720.0     34859.7
  4720.5     26570.8
  4721.0     23479.9
  4721.5     22961.4
  4722.0     24271.9
  4722.5     26683.7
  4723.0     30787.9
  4723.5     38356.9
  4724.0     48307.4
  4724.5     60639.8
  4725.0     86151.8
  4725.5    100618.6
  4726.0      113064
  4726.5      124254
  4727.0      139422
  4727.5      152386
  4728.0      154868
  4728.5      152730
  4729.0      145978
  4729.5      119241
  4730.0      108096
  4730.5     97199.2
  4731.0     86540.6
  4731.5     72706.6
  4732.0     60439.8
  4732.5     53501.2
  4733.0     48777.6
  4733.5     46699.8
  4734.0     55140.6
  4734.5     54023.1
  4735.0     52214.1
  4735.5     49714.8
  4736.0     44914.1
  4736.5       40253
  4737.0     37036.6
  4737.5     33999.1
  4738.0     30931.1
  4738.5     25781.8
  4739.0       24188
  4739.5     23620.6
  4740.0     24078.4
  4740.5     26105.2
  4741.0     28844.7
  4741.5     31929.1
  4742.0     35754.1
  4742.5     40473.5
  4743.0     47354.6
  4743.5     52811.8
  4744.0     58462.4
  4744.5     64305.8
  4745.0     74314.7
  4745.5     82216.7
  4746.0     85399.4
  4746.5     86726.3
  4747.0     86044.1
  4747.5     81940.6
  4748.0     78346.1
  4748.5     73491.8
  4749.0     67378.9
  4749.5     54171.9
  4750.0     42816.2
  4750.5     37745.1
  4751.0     34490.9
  4751.5     33262.5
  4752.0       37086
  4752.5     38073.5
  4753.0     39733.5
  4753.5     42065.2
  4754.0     49035.1
  4754.5     54974.2
  4755.0     55939.3
  4755.5     55373.8
  4756.0     53155.7
  4756.5     41531.9
  4757.0     38920.2
  4757.5     37288.1
  4758.0     36634.9
  4758.5     36370.3
  4759.0     37231.5
  4759.5     40043.7
  4760.0     44187.9
  4760.5     49662.8
  4761.0     65902.5
  4761.5     71604.4
  4762.0     75189.4
  4762.5     77097.7
  4763.0     75827.4
  4763.5     72782.7
  4764.0     71148.2
  4764.5       68885
  4765.0     65993.7
  4765.5     58263.5
  4766.0     54806.3
  4766.5     52739.8
  4767.0     51484.9
  4767.5     51977.3
  4768.0       53866
  4768.5     53965.9
  4769.0     54071.3
  4769.5       54182
  4770.0     52253.8
  4770.5     52432.8
  4771.0     53942.1
  4771.5     56226.6
  4772.0     59888.3
  4772.5     65424.4
  4773.0     69130.2
  4773.5     72879.9
  4774.0     76673.5
  4774.5     83873.7
  4775.0     88364.2
  4775.5     89838.9
  4776.0     89900.2
  4776.5     88017.4
  4777.0     81657.5
  4777.5     78912.3
  4778.0     76031.9
  4778.5     73016.5
  4779.0     62196.2
  4779.5     54941.8
  4780.0     57794.3
  4780.5     64547.3
  4781.0     75198.8
  4781.5      103561
  4782.0      118094
  4782.5      132067
  4783.0      145713
  4783.5      167600
  4784.0      190331
  4784.5      194506
  4785.0      192329
  4785.5      183806
  4786.0      146828
  4786.5      127542
  4787.0      114372
  4787.5    102717.7
  4788.0     90882.8
  4788.5     77760.4
  4789.0     73055.5
  4789.5     71800.3
  4790.0     73991.3
  4790.5     93097.3
  4791.0    105260.5
  4791.5      107952
  4792.0      108168
  4792.5    105413.3
  4793.0     94447.4
  4793.5       89416
  4794.0     83944.9
  4794.5     78035.1
  4795.0       69354
  4795.5     60644.6
  4796.0     55491.3
  4796.5     51309.7
  4797.0     48099.2
  4797.5     45093.8
  4798.0     43933.8
  4798.5     44116.5
  4799.0     45525.4
  4799.5     48575.4
  4800.0     53424.9
  4800.5     57954.8
  4801.0       63270
  4801.5     69369.9
  4802.0     83064.3
  4802.5     92362.2
  4803.0     95885.9
  4803.5     97219.1
  4804.0     95842.8
  4804.5     82285.2
  4805.0       80480
  4805.5     79768.9
  4806.0     80151.1
  4806.5     77095.4
  4807.0     74896.5
  4807.5       82852
  4808.0     94904.5
  4808.5      111049
  4809.0      140677
  4809.5      164678
  4810.0      187029
  4810.5      210093
  4811.0      237984
  4811.5      280141
  4812.0      297627
  4812.5      309244
  4813.0      314992
  4813.5      315637
  4814.0      310075
  4814.5      297604
  4815.0      278883
  4815.5      253918
  4816.0      189596
  4816.5      158227
  4817.0      134656
  4817.5      115401
  4818.0    100179.2
  4818.5       88879
  4819.0     82930.1
  4819.5     81585.9
  4820.0     84839.3
  4820.5      108677
  4821.0      126408
  4821.5      131669
  4822.0      134262
  4822.5      134191
  4823.0      125174
  4823.5      121409
  4824.0      117039
  4824.5      111879
  4825.0    104147.3
  4825.5     94154.6
  4826.0     88669.7
  4826.5       83950
  4827.0     79994.8
  4827.5     77171.3
  4828.0     74829.3
  4828.5     72899.1
  4829.0       71574
  4829.5     70853.2
  4830.0     68469.3
  4830.5       69605
  4831.0     72007.2
  4831.5     75667.9
  4832.0     83588.5
  4832.5     94947.5
  4833.0     99040.3
  4833.5    101874.2
  4834.0      103450
  4834.5     97007.5
  4835.0     94389.3
  4835.5     96968.5
  4836.0    101170.1
  4836.5      106994
  4837.0    105128.3
  4837.5      116688
  4838.0      132767
  4838.5      153174
  4839.0      186714
  4839.5      233484
  4840.0      256446
  4840.5      275700
  4841.0      291247
  4841.5      308226
  4842.0      318206
  4842.5      318908
  4843.0      313590
  4843.5      302256
  4844.0      266572
  4844.5      246829
  4845.0      228265
  4845.5      209319
  4846.0      187428
  4846.5      160005
  4847.0      143619
  4847.5      129886
  4848.0      118805
  4848.5      106770
  4849.0     98761.7
  4849.5     98478.7
  4850.0    102709.8
  4850.5      111451
  4851.0      142848
  4851.5      159501
  4852.0      170567
  4852.5      179998
  4853.0      189097
  4853.5      204377
  4854.0      205563
  4854.5      202116
  4855.0      194042
  4855.5      171008
  4856.0      141376
  4856.5      129177
  4857.0      119303
  4857.5      111755
  4858.0      110461
  4858.5      108298
  4859.0    105064.2
  4859.5      102580
  4860.0    100843.9
  4860.5    105177.2
  4861.0    103641.1
  4861.5    101108.1
  4862.0     97777.1
  4862.5     90907.8
  4863.0     78179.2
  4863.5     76277.7
  4864.0     76666.5
  4864.5     79342.9
  4865.0     90853.7
  4865.5    102692.1
  4866.0      106965
  4866.5      110029
  4867.0      111887
  4867.5      112611
  4868.0      112059
  4868.5      110253
  4869.0      107218
  4869.5      102593
  4870.0     86126.8
  4870.5     82673.3
  4871.0     81165.7
  4871.5       81604
  4872.0     87212.5
  4872.5     98603.9
  4873.0    100999.2
  4873.5    102318.7
  4874.0    102564.1
  4874.5    101329.1
  4875.0     99184.6
  4875.5     96524.4
  4876.0     92997.4
  4876.5     88604.3
  4877.0       76101
  4877.5       69867
  4878.0     67366.9
  4878.5     66524.1
  4879.0     67440.5
  4879.5     74119.7
  4880.0     77023.5
  4880.5     80385.3
  4881.0     84203.5
  4881.5     89326.6
  4882.0     96202.9
  4882.5    100307.3
  4883.0    104003.8
  4883.5      107292
  4884.0      112325
  4884.5      116464
  4885.0      116796
  4885.5      115554
  4886.0      112741
  4886.5       99178
  4887.0     91978.4
  4887.5     90363.6
  4888.0     90624.3
  4888.5     92759.3
  4889.0     97030.1
  4889.5    102861.8
  4890.0      110474
  4890.5      119881
  4891.0      133890
  4891.5      160825
  4892.0      170185
  4892.5      176635
  4893.0      180177
  4893.5      172697
  4894.0      158871
  4894.5      161620
  4895.0      167244
  4895.5      175742
  4896.0      194259
  4896.5      211885
  4897.0      223843
  4897.5      235395
  4898.0      246543
  4898.5      278676
  4899.0      289437
  4899.5      286329
  4900.0      275499
  4900.5      256951
  4901.0      194799
  4901.5      169794
  4902.0      147747
  4902.5      127918
  4903.0      108629
  4903.5     85974.7
  4904.0     75683.5
  4904.5     70085.9
  4905.0     69179.4
  4905.5     83120.4
  4906.0      106482
  4906.5      109727
  4907.0      110390
  4907.5      108475
  4908.0      100467
  4908.5     91414.9
  4909.0     84360.8
  4909.5     76407.6
  4910.0     67555.4
  4910.5     48367.4
  4911.0     36626.3
  4911.5     30977.8
  4912.0     27846.4
  4912.5     27228.7
  4913.0     36659.7
  4913.5     39882.2
  4914.0     42569.4
  4914.5       45545
  4915.0     49396.7
  4915.5     59819.1
  4916.0     61489.6
  4916.5     61426.2
  4917.0     59630.1
  4917.5       54301
  4918.0     43939.5
  4918.5     39333.6
  4919.0       34923
  4919.5       30708
  4920.0     25610.6
  4920.5     20468.7
  4921.0     17800.7
  4921.5     16017.4
  4922.0     15117.8
  4922.5     16991.5
  4923.0     18877.9
  4923.5     19260.3
  4924.0     19647.6
  4924.5     20039.8
  4925.0     20416.8
  4925.5       20816
  4926.0     21235.9
  4926.5     21668.1
  4927.0     22112.5
  4927.5     13026.6
  4928.0     14352.5
  4928.5     20264.8
  4929.0     29112.4
  4929.5     40894.8
  4930.0     65417.6
  4930.5     80491.9
  4931.0     95878.8
  4931.5      111589
  4932.0      130907
  4932.5      166771
  4933.0      176499
  4933.5      180411
  4934.0      178509
  4934.5      165370
  4935.0      138635
  4935.5      125813
  4936.0      112334
  4936.5     98198.9
  4937.0     73987.9
  4937.5     46590.1
  4938.0     38918.3
  4938.5     36648.2
  4939.0     39778.7
  4939.5       58662
  4940.0       79631
  4940.5     91225.9
  4941.0    103111.1
  4941.5      115287
  4942.0      140496
  4942.5      157405
  4943.0      162098
  4943.5      161964
  4944.0      157005
  4944.5      131682
  4945.0      115728
  4945.5      105625
  4946.0       96042
  4946.5       86975
  4947.0     60279.2
  4947.5     53771.3
  4948.0     56392.8
  4948.5       64999
  4949.0       79591
  4949.5      112601
  4950.0      136485
  4950.5      162429
  4951.0      190968
  4951.5      223290
  4952.0      275087
  4952.5      306119
  4953.0      334715
  4953.5      360874
  4954.0      386071
  4954.5      414958
  4955.0      431046
  4955.5      442288
  4956.0      448687
  4956.5      451475
  4957.0      451666
  4957.5      441992
  4958.0      426223
  4958.5      404365
  4959.0      368781
  4959.5      321020
  4960.0      288621
  4960.5      255989
  4961.0      223127
  4961.5      182534
  4962.0      140093
  4962.5      112966
  4963.0     90213.9
  4963.5     71834.4
  4964.0     62696.6
  4964.5     57138.5
  4965.0     48095.4
  4965.5     40879.4
  4966.0     35487.9
  4966.5     34924.7
  4967.0     34919.3
  4967.5     32865.4
  4968.0     31260.8
  4968.5     30105.1
  4969.0     29238.5
  4969.5     28917.2
  4970.0     29211.9
  4970.5     30020.1
  4971.0     31341.4
  4971.5     29415.7
  4972.0     30836.5
  4972.5     36041.3
  4973.0     43157.9
  4973.5       52185
  4974.0     63042.1
  4974.5     75886.2
  4975.0     90703.4
  4975.5      107452
  4976.0      126133
  4976.5      162994
  4977.0      186300
  4977.5      201485
  4978.0      213356
  4978.5      221919
  4979.0      231714
  4979.5      233553
  4980.0      229664
  4980.5      221081
  4981.0      207803
  4981.5      171437
  4982.0      150278
  4982.5      132911
  4983.0      116234
  4983.5    100244.6
  4984.0     80094.4
  4984.5     66090.3
  4985.0     54720.8
  4985.5     45396.7
  4986.0     38114.4
  4986.5     37461.9
  4987.0     33495.6
  4987.5     29931.8
  4988.0     27160.8
  4988.5     25181.5
  4989.0     25730.8
  4989.5     24993.2
  4990.0     24490.8
  4990.5     24319.5
  4991.0     24479.1
  4991.5     26347.6
  4992.0     26867.7
  4992.5     27316.8
  4993.0     27739.6
  4993.5     28136.1
  4994.0     26120.7
  4994.5     27024.2
  4995.0       28549
  4995.5     30655.3
  4996.0     33343.2
  4996.5     25319.5
  4997.0     31935.7
  4997.5     42046.9
  4998.0     55578.5
  4998.5       72531
  4999.0      108862
  4999.5      128686
  5000.0      147931
  5000.5      166602
  5001.0      184703
  5001.5      227313
  5002.0      238036
  5002.5      241906
  5003.0      238944
  5003.5      229156
  5004.0      186827
  5004.5      169635
  5005.0      152209
  5005.5      134402
  5006.0      116212
  5006.5     81511.8
  5007.0     66281.8
  5007.5     55002.6
  5008.0     47407.2
  5008.5     43491.1
  5009.0     51340.1
  5009.5     53044.3
  5010.0     56096.5
  5010.5     60759.8
  5011.0       67034
  5011.5     63685.1
  5012.0       75339
  5012.5     92136.6
  5013.0      113450
  5013.5      139281
  5014.0      174813
  5014.5      208862
  5015.0      245621
  5015.5      285520
  5016.0      328562
  5016.5      411349
  5017.0      456211
  5017.5      489733
  5018.0      516377
  5018.5      536157
  5019.0      556600
  5019.5      562110
  5020.0      557367
  5020.5      543648
  5021.0      520960
  5021.5      452996
  5022.0      412869
  5022.5      382789
  5023.0      354488
  5023.5      327964
  5024.0      283848
  5024.5      259694
  5025.0      249189
  5025.5      246500
  5026.0      251622
  5026.5      291926
  5027.0      316801
  5027.5      329700
  5028.0      341311
  5028.5      351639
  5029.0      377935
  5029.5      390294
  5030.0      386509
  5030.5      375286
  5031.0      356634
  5031.5      310255
  5032.0      268267
  5032.5      240062
  5033.0      212373
  5033.5      185199
  5034.0      150909
  5034.5      120047
  5035.0     99520.2
  5035.5     82838.9
  5036.0     69999.4
  5036.5     66812.7
  5037.0       66812
  5037.5     61199.5
  5038.0     56515.4
  5038.5     52758.5
  5039.0       51017
  5039.5     50514.9
  5040.0     48628.4
  5040.5     47019.4
  5041.0     45687.8
  5041.5     44210.5
  5042.0     42620.1
  5042.5     42532.4
  5043.0     43035.8
  5043.5       44129
  5044.0     46484.7
  5044.5     50840.5
  5045.0     52861.6
  5045.5     54785.9
  5046.0     56613.4
  5046.5     58925.1
  5047.0     64037.8
  5047.5     64447.2
  5048.0     63765.5
  5048.5     61993.6
  5049.0     58891.8
  5049.5     49318.2
  5050.0     45744.3
  5050.5     42494.8
  5051.0     39570.3
  5051.5     36969.7
  5052.0     32578.7
  5052.5     30983.5
  5053.0     30393.5
  5053.5     30663.6
  5054.0       31793
  5054.5     31216.5
  5055.0     34135.2
  5055.5     39177.3
  5056.0     45805.5
  5056.5     54019.6
  5057.0       69646
  5057.5     81984.6
  5058.0     91704.2
  5058.5    101110.6
  5059.0      110205
  5059.5      127799
  5060.0      140095
  5060.5      142834
  5061.0      141874
  5061.5      137217
  5062.0      121048
  5062.5    102350.6
  5063.0     92150.3
  5063.5       82008
  5064.0       71924
  5064.5     58872.1
  5065.0     44117.2
  5065.5     36842.6
  5066.0     31582.9
  5066.5     28336.1
  5067.0     28882.2
  5067.5     35432.3
  5068.0     35962.5
  5068.5     36656.4
  5069.0     37513.9
  5069.5     38455.2
  5070.0     38796.2
  5070.5     40383.4
  5071.0     42354.1
  5071.5     44707.4
  5072.0     47443.6
  5072.5     48555.1
  5073.0     52395.7
  5073.5     57254.3
  5074.0     62995.9
  5074.5     69620.6
  5075.0     69461.9
  5075.5     77567.9
  5076.0     90866.4
  5076.5      107284
  5077.0      126818
  5077.5      148476
  5078.0      173917
  5078.5      203417
  5079.0      236385
  5079.5      272818
  5080.0      325772
  5080.5      380369
  5081.0      418107
  5081.5      453136
  5082.0      485456
  5082.5      523738
  5083.0      567249
  5083.5      583311
  5084.0      590467
  5084.5      588727
  5085.0      575796
  5085.5      543722
  5086.0      519366
  5086.5      489659
  5087.0      454610
  5087.5      414215
  5088.0      331405
  5088.5      287760
  5089.0      248752
  5089.5      213256
  5090.0      181264
  5090.5      147176
  5091.0      121944
  5091.5    103330.2
  5092.0     89834.5
  5092.5     81449.4
  5093.0     79791.4
  5093.5     82312.6
  5094.0     88274.9
  5094.5     98736.5
  5095.0      113694
  5095.5      143550
  5096.0      179661
  5096.5      200201
  5097.0      219638
  5097.5      237972
  5098.0      261412
  5098.5      297545
  5099.0      304997
  5099.5      305127
  5100.0      297939
  5100.5      282661
  5101.0      225169
  5101.5      204606
  5102.0      185135
  5102.5      166762
  5103.0      149481
  5103.5      120724
  5104.0      105543
  5104.5     97872.2
  5105.0     94788.2
  5105.5     96284.4
  5106.0      112074
  5106.5      126990
  5107.0      136453
  5107.5      146891
  5108.0      158303
  5108.5      167944
  5109.0      177593
  5109.5      194126
  5110.0      213209
  5110.5      234837
  5111.0      263457
  5111.5      311212
  5112.0      333583
  5112.5      352559
  5113.0      368139
  5113.5      380333
  5114.0      407162
  5114.5      409777
  5115.0      403390
  5115.5      389264
  5116.0      367400
  5116.5      310037
  5117.0      267009
  5117.5      236904
  5118.0      207878
  5118.5      179926
  5119.0      144864
  5119.5      111468
  5120.0     92329.3
  5120.5     78108.3
  5121.0     68802.5
  5121.5     68157.8
  5122.0     80780.7
  5122.5     81690.6
  5123.0     83811.4
  5123.5     87141.6
  5124.0     91681.2
  5124.5    101892.6
  5125.0      107980
  5125.5      114112
  5126.0      120420
  5126.5      126902
  5127.0      134774
  5127.5      141825
  5128.0      148197
  5128.5      154368
  5129.0      160340
  5129.5      164270
  5130.0      168087
  5130.5      174750
  5131.0      182090
  5131.5      190107
  5132.0      195483
  5132.5      192114
  5133.0      206588
  5133.5      225436
  5134.0      248651
  5134.5      276235
  5135.0      324152
  5135.5      358306
  5136.0      391621
  5136.5      425454
  5137.0      459810
  5137.5      513572
  5138.0      555245
  5138.5      580690
  5139.0      600278
  5139.5      614016
  5140.0      613595
  5140.5      603212
  5141.0      606136
  5141.5      608122
  5142.0      609172
  5142.5      607837
  5143.0      591025
  5143.5      593494
  5144.0      598944
  5144.5      607370
  5145.0      618774
  5145.5      657936
  5146.0      676702
  5146.5      684733
  5147.0      688851
  5147.5      689065
  5148.0      690946
  5148.5      687965
  5149.0      672826
  5149.5      651340
  5150.0      623512
  5150.5      582821
  5151.0      515627
  5151.5      477650
  5152.0      440840
  5152.5      405201
  5153.0      370728
  5153.5      328048
  5154.0      296603
  5154.5      270010
  5155.0      246936
  5155.5      227369
  5156.0      215940
  5156.5      205977
  5157.0      194121
  5157.5      183991
  5158.0      175587
  5158.5      170563
  5159.0      170309
  5159.5      165281
  5160.0      160533
  5160.5      156068
  5161.0      151883
  5161.5      149701
  5162.0      145855
  5162.5      141723
  5163.0      137462
  5163.5      133073
  5164.0      123934
  5164.5      117021
  5165.0      114906
  5165.5      114338
  5166.0      115315
  5166.5      114527
  5167.0      109650
  5167.5      118723
  5168.0      132106
  5168.5      149795
  5169.0      171794
  5169.5      219554
  5170.0      247715
  5170.5      272906
  5171.0      297293
  5171.5      320883
  5172.0      363070
  5172.5      396067
  5173.0      405895
  5173.5      407639
  5174.0      401305
  5174.5      380407
  5175.0      335569
  5175.5      312785
  5176.0      288361
  5176.5      262310
  5177.0      234622
  5177.5      182185
  5178.0      152073
  5178.5      130188
  5179.0      112459
  5179.5     98883.3
  5180.0     94267.5
  5180.5     93000.9
  5181.0     88804.1
  5181.5     86694.6
  5182.0     86670.1
  5182.5     89603.4
  5183.0     99776.9
  5183.5    104312.7
  5184.0      109422
  5184.5      115103
  5185.0      121357
  5185.5      131401
  5186.0      139240
  5186.5      145623
  5187.0      151665
  5187.5      157365
  5188.0      160462
  5188.5      162045
  5189.0      168494
  5189.5      175896
  5190.0      184249
  5190.5      193556
  5191.0      192676
  5191.5      206014
  5192.0      222994
  5192.5      243352
  5193.0      267087
  5193.5      297357
  5194.0      329435
  5194.5      361551
  5195.0      395917
  5195.5      432530
  5196.0      475824
  5196.5      534472
  5197.0      572179
  5197.5      607350
  5198.0      639979
  5198.5      670077
  5199.0      713221
  5199.5      739307
  5200.0      754429
  5200.5      762876
  5201.0      764656
  5201.5      752481
  5202.0      730530
  5202.5      717790
  5203.0      702361
  5203.5      684245
  5204.0      663440
  5204.5      606691
  5205.0      586238
  5205.5      571667
  5206.0      561698
  5206.5      556322
  5207.0      556812
  5207.5      561424
  5208.0      569080
  5208.5      580840
  5209.0      596698
  5209.5      620277
  5210.0      669406
  5210.5      690713
  5211.0      709991
  5211.5      727234
  5212.0      742448
  5212.5      767697
  5213.0      781889
  5213.5      784925
  5214.0      782323
  5214.5      774087
  5215.0      756492
  5215.5      726874
  5216.0      705494
  5216.5      681488
  5217.0      654864
  5217.5      625616
  5218.0      575488
  5218.5      540368
  5219.0      511672
  5219.5      485023
  5220.0      460418
  5220.5      438107
  5221.0      417971
  5221.5      399272
  5222.0      382467
  5222.5      367559
  5223.0      354540
  5223.5      347232
  5224.0      337594
  5224.5      328576
  5225.0      320580
  5225.5      313603
  5226.0      303325
  5226.5      293956
  5227.0      292840
  5227.5      294687
  5228.0      299494
  5228.5      307263
  5229.0      310541
  5229.5      325641
  5230.0      345416
  5230.5      369716
  5231.0      398543
  5231.5      446215
  5232.0      494847
  5232.5      528742
  5233.0      561510
  5233.5      593146
  5234.0      624294
  5234.5      669589
  5235.0      694347
  5235.5      714566
  5236.0      730242
  5236.5      741384
  5237.0      743471
  5237.5      742798
  5238.0      742910
  5238.5      740140
  5239.0      734488
  5239.5      726413
  5240.0      721283
  5240.5      705491
  5241.0      685418
  5241.5      661077
  5242.0      632468
  5242.5      583178
  5243.0      537005
  5243.5      504603
  5244.0      473693
  5244.5      444278
  5245.0      414090
  5245.5      360085
  5246.0      341674
  5246.5      330883
  5247.0      327713
  5247.5      332161
  5248.0      369927
  5248.5      404245
  5249.0      417347
  5249.5      428992
  5250.0      439180
  5250.5      448862
  5251.0      471537
  5251.5      473838
  5252.0      471336
  5252.5      464036
  5253.0      451940
  5253.5      419346
  5254.0      387285
  5254.5      369707
  5255.0      353133
  5255.5      337564
  5256.0      323079
  5256.5      314825
  5257.0      301129
  5257.5      287329
  5258.0      273428
  5258.5      259425
  5259.0      243311
  5259.5      227387
  5260.0      214282
  5260.5      201894
  5261.0      190224
  5261.5      179266
  5262.0      156721
  5262.5      149042
  5263.0      145288
  5263.5      144844
  5264.0      147706
  5264.5      158442
  5265.0      173468
  5265.5      183186
  5266.0      194037
  5266.5      206018
  5267.0      219132
  5267.5      231273
  5268.0      246750
  5268.5      264181
  5269.0      283226
  5269.5      303885
  5270.0      323714
  5270.5      342837
  5271.0      370357
  5271.5      401004
  5272.0      434766
  5272.5      471651
  5273.0      536258
  5273.5      582566
  5274.0      617582
  5274.5      649305
  5275.0      677737
  5275.5      707458
  5276.0      747093
  5276.5      760221
  5277.0      765487
  5277.5      762898
  5278.0      752461
  5278.5      712145
  5279.0      676971
  5279.5      654192
  5280.0      630473
  5280.5      605817
  5281.0      578591
  5281.5      522064
  5282.0      501202
  5282.5      485723
  5283.0      475629
  5283.5      470914
  5284.0      472690
  5284.5      479773
  5285.0      490510
  5285.5      506157
  5286.0      526706
  5286.5      552160
  5287.0      607716
  5287.5      641508
  5288.0      671110
  5288.5      699984
  5289.0      728129
  5289.5      763477
  5290.0      807966
  5290.5      827170
  5291.0      840376
  5291.5      847586
  5292.0      848807
  5292.5      841559
  5293.0      830150
  5293.5      814581
  5294.0      793728
  5294.5      767599
  5295.0      733249
  5295.5      666107
  5296.0      631310
  5296.5      597868
  5297.0      565794
  5297.5      535080
  5298.0      491171
  5298.5      449792
  5299.0      431796
  5299.5      421043
  5300.0      417527
  5300.5      421242
  5301.0      453706
  5301.5      471396
  5302.0      487740
  5302.5      506422
  5303.0      527439
  5303.5      563553
  5304.0      628005
  5304.5      643265
  5305.0      650492
  5305.5      649691
  5306.0      640871
  5306.5      610711
  5307.0      579619
  5307.5      553498
  5308.0      523578
  5308.5      489864
  5309.0      452348
  5309.5      371786
  5310.0      333046
  5310.5      299626
  5311.0      270292
  5311.5      245037
  5312.0      222810
  5312.5      203798
  5313.0      191518
  5313.5      183897
  5314.0      180932
  5314.5      182619
  5315.0      198136
  5315.5      211680
  5316.0      223014
  5316.5      236432
  5317.0      251930
  5317.5      270404
  5318.0      317357
  5318.5      333487
  5319.0      346234
  5319.5      355596
  5320.0      361576
  5320.5      360531
  5321.0      354315
  5321.5      352692
  5322.0      349536
  5322.5      344851
  5323.0      338637
  5323.5      317889
  5324.0      305606
  5324.5      300754
  5325.0      297865
  5325.5      296935
  5326.0      298586
  5326.5      317892
  5327.0      319452
  5327.5      319700
  5328.0      318637
  5328.5      316264
  5329.0      309795
  5329.5      300397
  5330.0      296057
  5330.5      291853
  5331.0      287789
  5331.5      283862
  5332.0      272205
  5332.5      266240
  5333.0      266387
  5333.5      268857
  5334.0      273646
  5334.5      280755
  5335.0      293818
  5335.5      304919
  5336.0      317597
  5336.5      331886
  5337.0      347786
  5337.5      363854
  5338.0      379817
  5338.5      401754
  5339.0      426220
  5339.5      453206
  5340.0      482715
  5340.5      520808
  5341.0      558436
  5341.5      592509
  5342.0      627195
  5342.5      662488
  5343.0      698402
  5343.5      752433
  5344.0      788626
  5344.5      819402
  5345.0      847065
  5345.5      871620
  5346.0      892360
  5346.5      907439
  5347.0      923621
  5347.5      937480
  5348.0      949014
  5348.5      958226
  5349.0      961804
  5349.5      962977
  5350.0      967196
  5350.5      970449
  5351.0      972734
  5351.5      974054
  5352.0      972145
  5352.5      971091
  5353.0      970515
  5353.5      969553
  5354.0      968206
  5354.5      966473
  5355.0      974551
  5355.5      970178
  5356.0      963441
  5356.5      954396
  5357.0      943047
  5357.5      929116
  5358.0      912425
  5358.5      894386
  5359.0      874230
  5359.5      851962
  5360.0      827581
  5360.5      794455
  5361.0      760767
  5361.5      733606
  5362.0      706702
  5362.5      680063
  5363.0      653676
  5363.5      617059
  5364.0      589791
  5364.5      568598
  5365.0      550189
  5365.5      534563
  5366.0      521713
  5366.5      512144
  5367.0      504742
  5367.5      500020
  5368.0      497977
  5368.5      498613
  5369.0      505434
  5369.5      521496
  5370.0      526933
  5370.5      532446
  5371.0      538033
  5371.5      543694
  5372.0      546928
  5372.5      550446
  5373.0      557748
  5373.5      566080
  5374.0      575438
  5374.5      585825
  5375.0      602150
  5375.5      615821
  5376.0      627130
  5376.5      638188
  5377.0      648996
  5377.5      659557
  5378.0      693845
  5378.5      701646
  5379.0      702266
  5379.5      697846
  5380.0      688392
  5380.5      670966
  5381.0      633251
  5381.5      613161
  5382.0      591986
  5382.5      569740
  5383.0      546421
  5383.5      514399
  5384.0      475593
  5384.5      454401
  5385.0      436146
  5385.5      420832
  5386.0      408455
  5386.5      405947
  5387.0      404120
  5387.5      396987
  5388.0      390480
  5388.5      384601
  5389.0      379346
  5389.5      372948
  5390.0      368607
  5390.5      365974
  5391.0      364399
  5391.5      363882
  5392.0      364423
  5392.5      361241
  5393.0      364349
  5393.5      369875
  5394.0      377399
  5394.5      386916
  5395.0      399904
  5395.5      425645
  5396.0      438376
  5396.5      450580
  5397.0      462253
  5397.5      473397
  5398.0      486677
  5398.5      503113
  5399.0      510519
  5399.5      515706
  5400.0      518673
  5400.5      519423
  5401.0      506062
  5401.5      489840
  5402.0      490762
  5402.5      494182
  5403.0      500096
  5403.5      508504
  5404.0      513422
  5404.5      524040
  5405.0      542745
  5405.5      565681
  5406.0      592838
  5406.5      624223
  5407.0      684748
  5407.5      727876
  5408.0      761724
  5408.5      793998
  5409.0      824696
  5409.5      853828
  5410.0      890554
  5410.5      915765
  5411.0      936759
  5411.5      954379
  5412.0      968630
  5412.5      978623
  5413.0      972636
  5413.5      979588
  5414.0      985795
  5414.5      991254
  5415.0      995966
  5415.5      998671
  5416.0      997066
  5416.5     1000883
  5417.0     1005072
  5417.5     1009633
  5418.0     1014560
  5418.5     1021620
  5419.0     1030530
  5419.5     1035350
  5420.0     1039610
  5420.5     1043310
  5421.0     1046450
  5421.5     1050000
  5422.0     1053010
  5422.5     1053950
  5423.0     1053950
  5423.5     1053020
  5424.0     1051170
  5424.5     1051420
  5425.0     1049470
  5425.5     1043380
  5426.0     1035440
  5426.5     1025650
  5427.0     1014010
  5427.5      999801
  5428.0      984242
  5428.5      967354
  5429.0      948804
  5429.5      928596
  5430.0      906723
  5430.5      868271
  5431.0      841586
  5431.5      820656
  5432.0      801393
  5432.5      783799
  5433.0      767864
  5433.5      744299
  5434.0      732097
  5434.5      724616
  5435.0      720640
  5435.5      720166
  5436.0      723193
  5436.5      735849
  5437.0      744929
  5437.5      756272
  5438.0      770007
  5438.5      786129
  5439.0      806291
  5439.5      849381
  5440.0      868177
  5440.5      885135
  5441.0      900246
  5441.5      913514
  5442.0      926208
  5442.5      942771
  5443.0      948856
  5443.5      951637
  5444.0      951116
  5444.5      947296
  5445.0      936642
  5445.5      914469
  5446.0      904099
  5446.5      893179
  5447.0      881714
  5447.5      869703
  5448.0      853148
  5448.5      830888
  5449.0      820282
  5449.5      811505
  5450.0      804560
  5450.5      799443
  5451.0      795037
  5451.5      791678
  5452.0      792777
  5452.5      796251
  5453.0      802096
  5453.5      810314
  5454.0      824767
  5454.5      842819
  5455.0      855859
  5455.5      869627
  5456.0      884117
  5456.5      899331
  5457.0      918636
  5457.5      938863
  5458.0      954426
  5458.5      969442
  5459.0      983910
  5459.5      997831
  5460.0     1012257
  5460.5     1026010
  5461.0     1037760
  5461.5     1048600
  5462.0     1058520
  5462.5     1067540
  5463.0     1077330
  5463.5     1085780
  5464.0     1091250
  5464.5     1095270
  5465.0     1097840
  5465.5     1098960
  5466.0     1097450
  5466.5     1094900
  5467.0     1092240
  5467.5     1088480
  5468.0     1083640
  5468.5     1077720
  5469.0     1064600
  5469.5     1052930
  5470.0     1046590
  5470.5     1040970
  5471.0     1036080
  5471.5     1031910
  5472.0     1024700
  5472.5     1019940
  5473.0     1019650
  5473.5     1021170
  5474.0     1024500
  5474.5     1029620
  5475.0     1046110
  5475.5     1059760
  5476.0     1065990
  5476.5     1071310
  5477.0     1075730
  5477.5     1079250
  5478.0     1084430
  5478.5     1087450
  5479.0     1087130
  5479.5     1085180
  5480.0     1081620
  5480.5     1076430
  5481.0     1066460
  5481.5     1056380
  5482.0     1047770
  5482.5     1038450
  5483.0     1028410
  5483.5     1017650
  5484.0     1005558
  5484.5      993016
  5485.0      980385
  5485.5      967216
  5486.0      953511
  5486.5      939268
  5487.0      927502
  5487.5      914031
  5488.0      896766
  5488.5      878072
  5489.0      857957
  5489.5      836413
  5490.0      808922
  5490.5      781384
  5491.0      757682
  5491.5      733945
  5492.0      710179
  5492.5      686379
  5493.0      652874
  5493.5      621213
  5494.0      602057
  5494.5      586028
  5495.0      573128
  5495.5      563348
  5496.0      552083
  5496.5      544101
  5497.0      546054
  5497.5      552747
  5498.0      564174
  5498.5      580335
  5499.0      616123
  5499.5      659416
  5500.0      681555
  5500.5      702643
  5501.0      722672
  5501.5      741649
  5502.0      768907
  5502.5      799807
  5503.0      810015
  5503.5      815073
  5504.0      814981
  5504.5      809746
  5505.0      789982
  5505.5      755802
  5506.0      741544
  5506.5      727020
  5507.0      712235
  5507.5      697188
  5508.0      674951
  5508.5      640039
  5509.0      629830
  5509.5      623869
  5510.0      622157
  5510.5      624688
  5511.0      632145
  5511.5      646122
  5512.0      660659
  5512.5      678822
  5513.0      700599
  5513.5      725986
  5514.0      757697
  5514.5      813317
  5515.0      844814
  5515.5      875608
  5516.0      905686
  5516.5      935050
  5517.0      963946
  5517.5     1005426
  5518.0     1030360
  5518.5     1052310
  5519.0     1071260
  5519.5     1087210
  5520.0     1100170
  5520.5     1109160
  5521.0     1116220
  5521.5     1120550
  5522.0     1122070
  5522.5     1120780
  5523.0     1116670
  5523.5     1096480
  5524.0     1086120
  5524.5     1078390
  5525.0     1070490
  5525.5     1062420
  5526.0     1054180
  5526.5     1041870
  5527.0     1032400
  5527.5     1025130
  5528.0     1018560
  5528.5     1012701
  5529.0     1007539
  5529.5     1010340
  5530.0     1010043
  5530.5     1003876
  5531.0      996486
  5531.5      987874
  5532.0      978040
  5532.5      960558
  5533.0      942722
  5533.5      932344
  5534.0      922841
  5534.5      914215
  5535.0      906462
  5535.5      897180
  5536.0      887454
  5536.5      883744
  5537.0      881951
  5537.5      882076
  5538.0      884118
  5538.5      891418
  5539.0      907449
  5539.5      912445
  5540.0      917092
  5540.5      921390
  5541.0      925337
  5541.5      927662
  5542.0      919531
  5542.5      924726
  5543.0      931660
  5543.5      940329
  5544.0      950731
  5544.5      962870
  5545.0      982842
  5545.5      997786
  5546.0     1013110
  5546.5     1029120
  5547.0     1045820
  5547.5     1063210
  5548.0     1095050
  5548.5     1115150
  5549.0     1129650
  5549.5     1142060
  5550.0     1152390
  5550.5     1160650
  5551.0     1161300
  5551.5     1163140
  5552.0     1167440
  5552.5     1171050
  5553.0     1173970
  5553.5     1176190
  5554.0     1178240
  5554.5     1179580
  5555.0     1179480
  5555.5     1178520
  5556.0     1176690
  5556.5     1174000
  5557.0     1169130
  5557.5     1161900
  5558.0     1157520
  5558.5     1152970
  5559.0     1148240
  5559.5     1143350
  5560.0     1137080
  5560.5     1123530
  5561.0     1119850
  5561.5     1117550
  5562.0     1116630
  5562.5     1117080
  5563.0     1118910
  5563.5     1126130
  5564.0     1130350
  5564.5     1134970
  5565.0     1140280
  5565.5     1146280
  5566.0     1152960
  5566.5     1168350
  5567.0     1177970
  5567.5     1183720
  5568.0     1188450
  5568.5     1192140
  5569.0     1194810
  5569.5     1192920
  5570.0     1191080
  5570.5     1192240
  5571.0     1193410
  5571.5     1194580
  5572.0     1195750
  5572.5     1196190
  5573.0     1196030
  5573.5     1197650
  5574.0     1199620
  5574.5     1201930
  5575.0     1204580
  5575.5     1207960
  5576.0     1214080
  5576.5     1217180
  5577.0     1220120
  5577.5     1222880
  5578.0     1225470
  5578.5     1227890
  5579.0     1233040
  5579.5     1235000
  5580.0     1235930
  5580.5     1236190
  5581.0     1235770
  5581.5     1234660
  5582.0     1233610
  5582.5     1231390
  5583.0     1227960
  5583.5     1223680
  5584.0     1218550
  5584.5     1212570
  5585.0     1204310
  5585.5     1195000
  5586.0     1187200
  5586.5     1179060
  5587.0     1170580
  5587.5     1161770
  5588.0     1152400
  5588.5     1142070
  5589.0     1132440
  5589.5     1122630
  5590.0     1112660
  5590.5     1102530
  5591.0     1092220
  5591.5     1076650
  5592.0     1066500
  5592.5     1057320
  5593.0     1048830
  5593.5     1041010
  5594.0     1033870
  5594.5     1018400
  5595.0     1009887
  5595.5     1008194
  5596.0     1009205
  5596.5     1012920
  5597.0     1019330
  5597.5     1033580
  5598.0     1051530
  5598.5     1063410
  5599.0     1076120
  5599.5     1089670
  5600.0     1104060
